*RAS_DATA_START
*RAS_HEADER_START
*DISP_FMT_X "%.2f"
*DISP_FMT_Y "%.0f"
*DISP_FULLSCALE "14805.0000000000"
*DISP_LINE_COLOR "255.0000000000"
*DISP_LINE_STYLE "0.0000000000"
*DISP_LINE_WIDTH "0.2500000000"
*DISP_NOTE "測定データ-6"
*DISP_OFFSET_Y "0.0000000000"
*DISP_PEAKSEARCH_UNIT_Y "cps"
*DISP_RANGE_BOTTOM "0.0000000000"
*DISP_RANGE_LEFT "20.0000000000"
*DISP_RANGE_LOGCUTOFF "0.0100000000"
*DISP_RANGE_RIGHT "70.0000000000"
*DISP_RANGE_TOP "14805.0000000000"
*DISP_SCALE_MODE_Y "0.0000000000"
*DISP_TAB_NAME "2θ/θ"
*DISP_TITLE_Y "強度"
*DISP_UNIT_Y "cps"
*DISP_WINDOW_NAME "MSG_MACROENGINE"
*FILE_COMMENT " "
*FILE_MD5 ""
*FILE_MEMO " "
*FILE_OPERATOR "Administrator"
*FILE_SAMPLE " "
*FILE_TYPE "RAS_RAW"
*FILE_USERGROUP "システムマネージャ"
*FILE_VERSION "1.0000000000"
*HW_ATTACHMENT_ID "ATT0025"
*HW_ATTACHMENT_NAME "標準|Standard"
*HW_COUNTER_ID-0 "CUT0025"
*HW_COUNTER_ID-1 "CUT0020"
*HW_COUNTER_ID-2 "CUT0020"
*HW_COUNTER_ID-3 "CSL0021"
*HW_COUNTER_ID-4 "CMC0021"
*HW_COUNTER_NAME-0 "D/teX Ultra|D/teX Ultra"
*HW_COUNTER_NAME-1 "None|None"
*HW_COUNTER_NAME-2 "None|None"
*HW_COUNTER_NAME-3 "BBM|BBM"
*HW_COUNTER_NAME-4 "検出器モノクロメータ|Detector monochromator"
*HW_COUNTER_SELECT_NAME "D/teX Ultra|D/teX Ultra"
*HW_GONIOMETER_ID "GON0023"
*HW_GONIOMETER_NAME "SmartLab|SmartLab"
*HW_GONIOMETER_RADIUS-0 "90.0"
*HW_GONIOMETER_RADIUS-1 "114.0"
*HW_GONIOMETER_RADIUS-2 "190.0"
*HW_GONIOMETER_RADIUS-3 "300.0"
*HW_GONIOMETER_RADIUS-4 "187.0"
*HW_GONIOMETER_RADIUS-5 "300.0"
*HW_GONIOMETER_RADIUS-6 "113.0"
*HW_GONIOMETER_RADIUS-7 "331.0"
*HW_I_OPT_ID-0 "CBO0021"
*HW_I_OPT_ID-1 "ICR0023"
*HW_I_OPT_ID-2 "ISL0021"
*HW_I_OPT_ID-3 "ISO0021"
*HW_I_OPT_ID-4 "IAD0021"
*HW_I_OPT_ID-5 "IPR0001"
*HW_I_OPT_NAME-0 "CBOユニット|CBO unit"
*HW_I_OPT_NAME-1 "標準入射光学ユニット|Standard incident optical unit"
*HW_I_OPT_NAME-2 "標準入射スリットボックス|Standard incident slit box"
*HW_I_OPT_NAME-3 "入射平行スリット|Incident parallel slit"
*HW_I_OPT_NAME-4 "長手制限スリット|Length limiting slit"
*HW_I_OPT_NAME-5 "None|None"
*HW_R_ATTENUATER_AUTOMODE "0"
*HW_R_OPT_ID-0 "RSS0021"
*HW_R_OPT_ID-1 "RCR0023"
*HW_R_OPT_ID-2 "RSO0021"
*HW_R_OPT_ID-3 "RRS0021"
*HW_R_OPT_ID-4 "ATN0021"
*HW_R_OPT_ID-5 "RFL0021"
*HW_R_OPT_ID-6 "RAD0021"
*HW_R_OPT_NAME-0 "標準受光スリットボックス1|Standard receiving slit box # 1"
*HW_R_OPT_NAME-1 "標準受光光学ユニット1|Standard receiving unit # 1"
*HW_R_OPT_NAME-2 "標準受光光学ユニット2|Standard receiving optical unit # 2"
*HW_R_OPT_NAME-3 "標準受光スリットボックス2|Standard receiving slit box # 2"
*HW_R_OPT_NAME-4 "標準アッテネータ|Standard Attenuator"
*HW_R_OPT_NAME-5 "Cu Kβ|Cu K-beta"
*HW_R_OPT_NAME-6 "調整用受光スリット|Alignment receiving slit"
*HW_SAMPLE_HOLDER_ID "SMP0023"
*HW_SAMPLE_HOLDER_NAME "標準Zステージ|Standard Z stage"
*HW_XG_CURRENT_MAX "50"
*HW_XG_CURRENT_MIN "2"
*HW_XG_CURRENT_RESOLUTION "1"
*HW_XG_CURRENT_UNIT "mA"
*HW_XG_FOCUS "1mm x 10mm"
*HW_XG_FOCUS_TYPE "Normal"
*HW_XG_ID ""
*HW_XG_NAME "3kW 封入管(ID:1200)|3kW Sealed tube(ID:1200)"
*HW_XG_TARGET_ATOMIC_NUMBER "29.0000000000"
*HW_XG_TARGET_NAME "Cu"
*HW_XG_TYPE "Hermetic"
*HW_XG_VOLTAGE_MAX "60"
*HW_XG_VOLTAGE_MIN "20"
*HW_XG_VOLTAGE_RESOLUTION "1"
*HW_XG_VOLTAGE_UNIT "kV"
*HW_XG_WATT_MAX "1.500"
*HW_XG_WATT_UNIT "kW"
*HW_XG_WAVE_LENGTH_ALPHA1 "1.540593"
*HW_XG_WAVE_LENGTH_ALPHA2 "1.544414"
*HW_XG_WAVE_LENGTH_BETA "1.392250"
*MEAS_COND_AXIS_NAME-0 "2θ/θ"
*MEAS_COND_AXIS_NAME-1 "2θ"
*MEAS_COND_AXIS_NAME-2 "ω"
*MEAS_COND_AXIS_NAME-3 "Z"
*MEAS_COND_AXIS_NAME-4 "2θ/ω"
*MEAS_COND_AXIS_NAME-5 "θs"
*MEAS_COND_AXIS_NAME-6 "θd"
*MEAS_COND_AXIS_NAME-7 "Ts"
*MEAS_COND_AXIS_NAME-8 "CBO選択スリット"
*MEAS_COND_AXIS_NAME-9 "M"
*MEAS_COND_AXIS_NAME-10 "入射平行スリット"
*MEAS_COND_AXIS_NAME-11 "入射スリット"
*MEAS_COND_AXIS_NAME-12 ""
*MEAS_COND_AXIS_NAME-13 "Zs"
*MEAS_COND_AXIS_NAME-14 "入射光学素子"
*MEAS_COND_AXIS_NAME-15 "長手制限スリット"
*MEAS_COND_AXIS_NAME-16 "センタースリット"
*MEAS_COND_AXIS_NAME-17 "フィルター"
*MEAS_COND_AXIS_NAME-18 "受光スリット1"
*MEAS_COND_AXIS_NAME-19 "受光スリット2"
*MEAS_COND_AXIS_NAME-20 "受光光学素子"
*MEAS_COND_AXIS_NAME-21 "受光平行スリット"
*MEAS_COND_AXIS_NAME-22 "調整用受光スリット"
*MEAS_COND_AXIS_NAME-23 ""
*MEAS_COND_AXIS_NAME-24 ""
*MEAS_COND_AXIS_NAME-25 "Zd"
*MEAS_COND_AXIS_NAME-26 "アッテネータ"
*MEAS_COND_AXIS_NAME-27 "検出器モノクロメータ"
*MEAS_COND_AXIS_NAME-28 "モノクロメータスリット"
*MEAS_COND_AXIS_NAME-29 "プライマリビーム"
*MEAS_COND_AXIS_NAME-30 "PHA"
*MEAS_COND_AXIS_NAME_INTERNAL-0 "TwoThetaTheta"
*MEAS_COND_AXIS_NAME_INTERNAL-1 "TwoTheta"
*MEAS_COND_AXIS_NAME_INTERNAL-2 "Omega"
*MEAS_COND_AXIS_NAME_INTERNAL-3 "Z"
*MEAS_COND_AXIS_NAME_INTERNAL-4 "TwoThetaOmega"
*MEAS_COND_AXIS_NAME_INTERNAL-5 "ThetaS"
*MEAS_COND_AXIS_NAME_INTERNAL-6 "ThetaD"
*MEAS_COND_AXIS_NAME_INTERNAL-7 "Ts"
*MEAS_COND_AXIS_NAME_INTERNAL-8 "CBO"
*MEAS_COND_AXIS_NAME_INTERNAL-9 "CBO-M"
*MEAS_COND_AXIS_NAME_INTERNAL-10 "IncidentSollerSlit"
*MEAS_COND_AXIS_NAME_INTERNAL-11 "IncidentSlitBox"
*MEAS_COND_AXIS_NAME_INTERNAL-12 "IncidentSlitBox-_Axis"
*MEAS_COND_AXIS_NAME_INTERNAL-13 "Zs"
*MEAS_COND_AXIS_NAME_INTERNAL-14 "IncidentMonochromator"
*MEAS_COND_AXIS_NAME_INTERNAL-15 "IncidentAxdSlit"
*MEAS_COND_AXIS_NAME_INTERNAL-16 "CenterSlit"
*MEAS_COND_AXIS_NAME_INTERNAL-17 "Filter"
*MEAS_COND_AXIS_NAME_INTERNAL-18 "ReceivingSlitBox1"
*MEAS_COND_AXIS_NAME_INTERNAL-19 "ReceivingSlitBox2"
*MEAS_COND_AXIS_NAME_INTERNAL-20 "ReceivingOptics"
*MEAS_COND_AXIS_NAME_INTERNAL-21 "ReceivingSollerSlit"
*MEAS_COND_AXIS_NAME_INTERNAL-22 "ReceivingAxdSlit"
*MEAS_COND_AXIS_NAME_INTERNAL-23 "ReceivingSlitBox1-_Axis"
*MEAS_COND_AXIS_NAME_INTERNAL-24 "ReceivingSlitBox2-_Axis"
*MEAS_COND_AXIS_NAME_INTERNAL-25 "ReceivingSlitBox2-Zd"
*MEAS_COND_AXIS_NAME_INTERNAL-26 "Attenuator"
*MEAS_COND_AXIS_NAME_INTERNAL-27 "CounterMonochromator"
*MEAS_COND_AXIS_NAME_INTERNAL-28 "CounterSlit"
*MEAS_COND_AXIS_NAME_INTERNAL-29 "IncidentPrimary"
*MEAS_COND_AXIS_NAME_INTERNAL-30 "PHA"
*MEAS_COND_AXIS_NAME_MAGICNO-0 "83951616.0000000000"
*MEAS_COND_AXIS_NAME_MAGICNO-1 "268632064.0000000000"
*MEAS_COND_AXIS_NAME_MAGICNO-2 "268500992.0000000000"
*MEAS_COND_AXIS_NAME_MAGICNO-3 "285278208.0000000000"
*MEAS_COND_AXIS_NAME_MAGICNO-4 "83951616.0000000000"
*MEAS_COND_AXIS_NAME_MAGICNO-5 "131072.0000000000"
*MEAS_COND_AXIS_NAME_MAGICNO-6 "131072.0000000000"
*MEAS_COND_AXIS_NAME_MAGICNO-7 "318898176.0000000000"
*MEAS_COND_AXIS_NAME_MAGICNO-8 "20971521.0000000000"
*MEAS_COND_AXIS_NAME_MAGICNO-9 "285343744.0000000000"
*MEAS_COND_AXIS_NAME_MAGICNO-10 "20971521.0000000000"
*MEAS_COND_AXIS_NAME_MAGICNO-11 "22020097.0000000000"
*MEAS_COND_AXIS_NAME_MAGICNO-12 "25165824.0000000000"
*MEAS_COND_AXIS_NAME_MAGICNO-13 "318898176.0000000000"
*MEAS_COND_AXIS_NAME_MAGICNO-14 "1.0000000000"
*MEAS_COND_AXIS_NAME_MAGICNO-15 "20971521.0000000000"
*MEAS_COND_AXIS_NAME_MAGICNO-16 "20971521.0000000000"
*MEAS_COND_AXIS_NAME_MAGICNO-17 "20971521.0000000000"
*MEAS_COND_AXIS_NAME_MAGICNO-18 "23068673.0000000000"
*MEAS_COND_AXIS_NAME_MAGICNO-19 "23068673.0000000000"
*MEAS_COND_AXIS_NAME_MAGICNO-20 "20971521.0000000000"
*MEAS_COND_AXIS_NAME_MAGICNO-21 "20971521.0000000000"
*MEAS_COND_AXIS_NAME_MAGICNO-22 "20971521.0000000000"
*MEAS_COND_AXIS_NAME_MAGICNO-23 "25165824.0000000000"
*MEAS_COND_AXIS_NAME_MAGICNO-24 "25165824.0000000000"
*MEAS_COND_AXIS_NAME_MAGICNO-25 "285343744.0000000000"
*MEAS_COND_AXIS_NAME_MAGICNO-26 "17301505.0000000000"
*MEAS_COND_AXIS_NAME_MAGICNO-27 "20971521.0000000000"
*MEAS_COND_AXIS_NAME_MAGICNO-28 "20971521.0000000000"
*MEAS_COND_AXIS_NAME_MAGICNO-29 "20971521.0000000000"
*MEAS_COND_AXIS_NAME_MAGICNO-30 "0.0000000000"
*MEAS_COND_AXIS_OFFSET-0 "-"
*MEAS_COND_AXIS_OFFSET-1 "-0.0310000000"
*MEAS_COND_AXIS_OFFSET-2 "0.1589000000"
*MEAS_COND_AXIS_OFFSET-3 "-"
*MEAS_COND_AXIS_OFFSET-4 "-"
*MEAS_COND_AXIS_OFFSET-5 "0.1589000000"
*MEAS_COND_AXIS_OFFSET-6 "-0.1899000000"
*MEAS_COND_AXIS_OFFSET-7 "-"
*MEAS_COND_AXIS_OFFSET-8 "-"
*MEAS_COND_AXIS_OFFSET-9 "-"
*MEAS_COND_AXIS_OFFSET-10 "-"
*MEAS_COND_AXIS_OFFSET-11 "-"
*MEAS_COND_AXIS_OFFSET-12 "-"
*MEAS_COND_AXIS_OFFSET-13 "-"
*MEAS_COND_AXIS_OFFSET-14 "-"
*MEAS_COND_AXIS_OFFSET-15 "-"
*MEAS_COND_AXIS_OFFSET-16 "-"
*MEAS_COND_AXIS_OFFSET-17 "-"
*MEAS_COND_AXIS_OFFSET-18 "-"
*MEAS_COND_AXIS_OFFSET-19 "-"
*MEAS_COND_AXIS_OFFSET-20 "-"
*MEAS_COND_AXIS_OFFSET-21 "-"
*MEAS_COND_AXIS_OFFSET-22 "-"
*MEAS_COND_AXIS_OFFSET-23 "-"
*MEAS_COND_AXIS_OFFSET-24 "-"
*MEAS_COND_AXIS_OFFSET-25 "-"
*MEAS_COND_AXIS_OFFSET-26 "-"
*MEAS_COND_AXIS_OFFSET-27 "-"
*MEAS_COND_AXIS_OFFSET-28 "-"
*MEAS_COND_AXIS_OFFSET-29 "-"
*MEAS_COND_AXIS_OFFSET-30 "-"
*MEAS_COND_AXIS_POSITION-0 "0.0000000000"
*MEAS_COND_AXIS_POSITION-1 "0.0000000000"
*MEAS_COND_AXIS_POSITION-2 "0.0000000000"
*MEAS_COND_AXIS_POSITION-3 "-2.9326600000"
*MEAS_COND_AXIS_POSITION-4 "0.0000000000"
*MEAS_COND_AXIS_POSITION-5 "0.0000000000"
*MEAS_COND_AXIS_POSITION-6 "0.0000000000"
*MEAS_COND_AXIS_POSITION-7 "-0.7498700000"
*MEAS_COND_AXIS_POSITION-8 "BB"
*MEAS_COND_AXIS_POSITION-9 "0.0000000000"
*MEAS_COND_AXIS_POSITION-10 "Soller_slit_5.0deg"
*MEAS_COND_AXIS_POSITION-11 "2/3deg"
*MEAS_COND_AXIS_POSITION-12 "2.2088000000"
*MEAS_COND_AXIS_POSITION-13 "-0.6412500000"
*MEAS_COND_AXIS_POSITION-14 "0.0000000000"
*MEAS_COND_AXIS_POSITION-15 "10.0mm"
*MEAS_COND_AXIS_POSITION-16 "None"
*MEAS_COND_AXIS_POSITION-17 "Cu_K-beta"
*MEAS_COND_AXIS_POSITION-18 "13.000mm"
*MEAS_COND_AXIS_POSITION-19 "13.000mm"
*MEAS_COND_AXIS_POSITION-20 "No_unit"
*MEAS_COND_AXIS_POSITION-21 "Soller_slit_5.0deg"
*MEAS_COND_AXIS_POSITION-22 "None"
*MEAS_COND_AXIS_POSITION-23 "13.0000000000"
*MEAS_COND_AXIS_POSITION-24 "13.0000000000"
*MEAS_COND_AXIS_POSITION-25 "0.0281300000"
*MEAS_COND_AXIS_POSITION-26 "Open"
*MEAS_COND_AXIS_POSITION-27 "None"
*MEAS_COND_AXIS_POSITION-28 "None"
*MEAS_COND_AXIS_POSITION-29 "None"
*MEAS_COND_AXIS_POSITION-30 "38.0000000000"
*MEAS_COND_AXIS_UNIT-0 "deg"
*MEAS_COND_AXIS_UNIT-1 "deg"
*MEAS_COND_AXIS_UNIT-2 "deg"
*MEAS_COND_AXIS_UNIT-3 "mm"
*MEAS_COND_AXIS_UNIT-4 "deg"
*MEAS_COND_AXIS_UNIT-5 "deg"
*MEAS_COND_AXIS_UNIT-6 "deg"
*MEAS_COND_AXIS_UNIT-7 "mm"
*MEAS_COND_AXIS_UNIT-8 ""
*MEAS_COND_AXIS_UNIT-9 "pulse"
*MEAS_COND_AXIS_UNIT-10 ""
*MEAS_COND_AXIS_UNIT-11 ""
*MEAS_COND_AXIS_UNIT-12 "mm"
*MEAS_COND_AXIS_UNIT-13 "mm"
*MEAS_COND_AXIS_UNIT-14 ""
*MEAS_COND_AXIS_UNIT-15 ""
*MEAS_COND_AXIS_UNIT-16 ""
*MEAS_COND_AXIS_UNIT-17 ""
*MEAS_COND_AXIS_UNIT-18 ""
*MEAS_COND_AXIS_UNIT-19 ""
*MEAS_COND_AXIS_UNIT-20 ""
*MEAS_COND_AXIS_UNIT-21 ""
*MEAS_COND_AXIS_UNIT-22 ""
*MEAS_COND_AXIS_UNIT-23 "mm"
*MEAS_COND_AXIS_UNIT-24 "mm"
*MEAS_COND_AXIS_UNIT-25 "mm"
*MEAS_COND_AXIS_UNIT-26 ""
*MEAS_COND_AXIS_UNIT-27 ""
*MEAS_COND_AXIS_UNIT-28 ""
*MEAS_COND_AXIS_UNIT-29 ""
*MEAS_COND_AXIS_UNIT-30 "div"
*MEAS_COND_COUNTER_CNTLOSS_CORR "0.0000000000"
*MEAS_COND_COUNTER_PHABASE "38.0000000000"
*MEAS_COND_COUNTER_PHAWINDOW "16.0000000000"
*MEAS_COND_COUNTER_PHA_UNIT "div"
*MEAS_COND_COUNTER_TAUDIFF "30.0000000000"
*MEAS_COND_COUNTER_TAUINT "0.0000000000"
*MEAS_COND_IRRADIATION_MODE "OFF"
*MEAS_COND_IRRADIATION_WIDTH ""
*MEAS_COND_OPT_ATTR "集中法"
*MEAS_COND_OPT_NAME "@集中法"
*MEAS_COND_UNSYMMETRIC_MODE "OFF"
*MEAS_COND_XG_CURRENT "30.0000000000"
*MEAS_COND_XG_VOLTAGE "40.0000000000"
*MEAS_COND_XG_WAVE_TYPE "Ka"
*MEAS_DATA_COUNT "5001.0000000000"
*MEAS_SCAN_AXIS_X "2θ/θ"
*MEAS_SCAN_AXIS_X_INTERNAL "TwoThetaTheta"
*MEAS_SCAN_END_TIME "12/13/22 12:32:43"
*MEAS_SCAN_MODE "CONTINUOUS"
*MEAS_SCAN_MONITOR "0"
*MEAS_SCAN_RESOLUTION_X "0.0002"
*MEAS_SCAN_SPEED "2.5"
*MEAS_SCAN_SPEED_UNIT "deg/min"
*MEAS_SCAN_START "20.0000000000"
*MEAS_SCAN_START_TIME "12/13/22 12:11:19"
*MEAS_SCAN_STEP "0.0100000000"
*MEAS_SCAN_STOP "70.0000000000"
*MEAS_SCAN_UNIT_X "deg"
*MEAS_SCAN_UNIT_Y "counts"
*RAS_HEADER_END
*RAS_INT_START
20.0000 861.0000 1.0000
20.0100 845.0000 1.0000
20.0200 882.0000 1.0000
20.0300 860.0000 1.0000
20.0400 840.0000 1.0000
20.0500 827.0000 1.0000
20.0600 875.0000 1.0000
20.0700 876.0000 1.0000
20.0800 914.0000 1.0000
20.0900 881.0000 1.0000
20.1000 837.0000 1.0000
20.1100 845.0000 1.0000
20.1200 867.0000 1.0000
20.1300 849.0000 1.0000
20.1400 870.0000 1.0000
20.1500 858.0000 1.0000
20.1600 876.0000 1.0000
20.1700 838.0000 1.0000
20.1800 856.0000 1.0000
20.1900 854.0000 1.0000
20.2000 841.0000 1.0000
20.2100 878.0000 1.0000
20.2200 849.0000 1.0000
20.2300 848.0000 1.0000
20.2400 879.0000 1.0000
20.2500 859.0000 1.0000
20.2600 866.0000 1.0000
20.2700 855.0000 1.0000
20.2800 814.0000 1.0000
20.2900 826.0000 1.0000
20.3000 841.0000 1.0000
20.3100 861.0000 1.0000
20.3200 872.0000 1.0000
20.3300 870.0000 1.0000
20.3400 875.0000 1.0000
20.3500 889.0000 1.0000
20.3600 830.0000 1.0000
20.3700 817.0000 1.0000
20.3800 845.0000 1.0000
20.3900 848.0000 1.0000
20.4000 842.0000 1.0000
20.4100 846.0000 1.0000
20.4200 820.0000 1.0000
20.4300 856.0000 1.0000
20.4400 848.0000 1.0000
20.4500 848.0000 1.0000
20.4600 813.0000 1.0000
20.4700 889.0000 1.0000
20.4800 859.0000 1.0000
20.4900 883.0000 1.0000
20.5000 851.0000 1.0000
20.5100 893.0000 1.0000
20.5200 869.0000 1.0000
20.5300 847.0000 1.0000
20.5400 838.0000 1.0000
20.5500 854.0000 1.0000
20.5600 846.0000 1.0000
20.5700 846.0000 1.0000
20.5800 851.0000 1.0000
20.5900 829.0000 1.0000
20.6000 864.0000 1.0000
20.6100 829.0000 1.0000
20.6200 844.0000 1.0000
20.6300 864.0000 1.0000
20.6400 838.0000 1.0000
20.6500 854.0000 1.0000
20.6600 880.0000 1.0000
20.6700 900.0000 1.0000
20.6800 874.0000 1.0000
20.6900 882.0000 1.0000
20.7000 833.0000 1.0000
20.7100 846.0000 1.0000
20.7200 870.0000 1.0000
20.7300 837.0000 1.0000
20.7400 887.0000 1.0000
20.7500 875.0000 1.0000
20.7600 842.0000 1.0000
20.7700 886.0000 1.0000
20.7800 829.0000 1.0000
20.7900 867.0000 1.0000
20.8000 874.0000 1.0000
20.8100 825.0000 1.0000
20.8200 870.0000 1.0000
20.8300 876.0000 1.0000
20.8400 848.0000 1.0000
20.8500 828.0000 1.0000
20.8600 878.0000 1.0000
20.8700 868.0000 1.0000
20.8800 915.0000 1.0000
20.8900 874.0000 1.0000
20.9000 871.0000 1.0000
20.9100 871.0000 1.0000
20.9200 882.0000 1.0000
20.9300 860.0000 1.0000
20.9400 837.0000 1.0000
20.9500 859.0000 1.0000
20.9600 850.0000 1.0000
20.9700 865.0000 1.0000
20.9800 955.0000 1.0000
20.9900 826.0000 1.0000
21.0000 895.0000 1.0000
21.0100 868.0000 1.0000
21.0200 865.0000 1.0000
21.0300 845.0000 1.0000
21.0400 928.0000 1.0000
21.0500 856.0000 1.0000
21.0600 867.0000 1.0000
21.0700 860.0000 1.0000
21.0800 848.0000 1.0000
21.0900 851.0000 1.0000
21.1000 859.0000 1.0000
21.1100 852.0000 1.0000
21.1200 828.0000 1.0000
21.1300 881.0000 1.0000
21.1400 904.0000 1.0000
21.1500 861.0000 1.0000
21.1600 845.0000 1.0000
21.1700 900.0000 1.0000
21.1800 861.0000 1.0000
21.1900 874.0000 1.0000
21.2000 883.0000 1.0000
21.2100 873.0000 1.0000
21.2200 831.0000 1.0000
21.2300 823.0000 1.0000
21.2400 854.0000 1.0000
21.2500 854.0000 1.0000
21.2600 867.0000 1.0000
21.2700 852.0000 1.0000
21.2800 849.0000 1.0000
21.2900 852.0000 1.0000
21.3000 830.0000 1.0000
21.3100 836.0000 1.0000
21.3200 841.0000 1.0000
21.3300 854.0000 1.0000
21.3400 839.0000 1.0000
21.3500 823.0000 1.0000
21.3600 829.0000 1.0000
21.3700 840.0000 1.0000
21.3800 847.0000 1.0000
21.3900 862.0000 1.0000
21.4000 858.0000 1.0000
21.4100 884.0000 1.0000
21.4200 843.0000 1.0000
21.4300 880.0000 1.0000
21.4400 854.0000 1.0000
21.4500 833.0000 1.0000
21.4600 874.0000 1.0000
21.4700 790.0000 1.0000
21.4800 888.0000 1.0000
21.4900 822.0000 1.0000
21.5000 839.0000 1.0000
21.5100 828.0000 1.0000
21.5200 877.0000 1.0000
21.5300 853.0000 1.0000
21.5400 866.0000 1.0000
21.5500 897.0000 1.0000
21.5600 878.0000 1.0000
21.5700 831.0000 1.0000
21.5800 843.0000 1.0000
21.5900 844.0000 1.0000
21.6000 883.0000 1.0000
21.6100 858.0000 1.0000
21.6200 911.0000 1.0000
21.6300 876.0000 1.0000
21.6400 819.0000 1.0000
21.6500 857.0000 1.0000
21.6600 833.0000 1.0000
21.6700 871.0000 1.0000
21.6800 881.0000 1.0000
21.6900 865.0000 1.0000
21.7000 846.0000 1.0000
21.7100 842.0000 1.0000
21.7200 902.0000 1.0000
21.7300 853.0000 1.0000
21.7400 900.0000 1.0000
21.7500 862.0000 1.0000
21.7600 869.0000 1.0000
21.7700 876.0000 1.0000
21.7800 835.0000 1.0000
21.7900 865.0000 1.0000
21.8000 887.0000 1.0000
21.8100 844.0000 1.0000
21.8200 909.0000 1.0000
21.8300 926.0000 1.0000
21.8400 901.0000 1.0000
21.8500 834.0000 1.0000
21.8600 840.0000 1.0000
21.8700 840.0000 1.0000
21.8800 885.0000 1.0000
21.8900 822.0000 1.0000
21.9000 815.0000 1.0000
21.9100 824.0000 1.0000
21.9200 875.0000 1.0000
21.9300 886.0000 1.0000
21.9400 859.0000 1.0000
21.9500 818.0000 1.0000
21.9600 860.0000 1.0000
21.9700 874.0000 1.0000
21.9800 866.0000 1.0000
21.9900 840.0000 1.0000
22.0000 909.0000 1.0000
22.0100 856.0000 1.0000
22.0200 866.0000 1.0000
22.0300 855.0000 1.0000
22.0400 852.0000 1.0000
22.0500 887.0000 1.0000
22.0600 927.0000 1.0000
22.0700 847.0000 1.0000
22.0800 847.0000 1.0000
22.0900 880.0000 1.0000
22.1000 905.0000 1.0000
22.1100 888.0000 1.0000
22.1200 886.0000 1.0000
22.1300 869.0000 1.0000
22.1400 852.0000 1.0000
22.1500 832.0000 1.0000
22.1600 867.0000 1.0000
22.1700 822.0000 1.0000
22.1800 823.0000 1.0000
22.1900 890.0000 1.0000
22.2000 867.0000 1.0000
22.2100 834.0000 1.0000
22.2200 823.0000 1.0000
22.2300 816.0000 1.0000
22.2400 797.0000 1.0000
22.2500 861.0000 1.0000
22.2600 817.0000 1.0000
22.2700 916.0000 1.0000
22.2800 900.0000 1.0000
22.2900 845.0000 1.0000
22.3000 872.0000 1.0000
22.3100 893.0000 1.0000
22.3200 853.0000 1.0000
22.3300 872.0000 1.0000
22.3400 854.0000 1.0000
22.3500 889.0000 1.0000
22.3600 828.0000 1.0000
22.3700 834.0000 1.0000
22.3800 879.0000 1.0000
22.3900 820.0000 1.0000
22.4000 854.0000 1.0000
22.4100 837.0000 1.0000
22.4200 825.0000 1.0000
22.4300 861.0000 1.0000
22.4400 852.0000 1.0000
22.4500 864.0000 1.0000
22.4600 913.0000 1.0000
22.4700 814.0000 1.0000
22.4800 812.0000 1.0000
22.4900 855.0000 1.0000
22.5000 865.0000 1.0000
22.5100 877.0000 1.0000
22.5200 857.0000 1.0000
22.5300 805.0000 1.0000
22.5400 817.0000 1.0000
22.5500 826.0000 1.0000
22.5600 817.0000 1.0000
22.5700 822.0000 1.0000
22.5800 855.0000 1.0000
22.5900 871.0000 1.0000
22.6000 817.0000 1.0000
22.6100 873.0000 1.0000
22.6200 868.0000 1.0000
22.6300 825.0000 1.0000
22.6400 849.0000 1.0000
22.6500 833.0000 1.0000
22.6600 823.0000 1.0000
22.6700 807.0000 1.0000
22.6800 815.0000 1.0000
22.6900 849.0000 1.0000
22.7000 887.0000 1.0000
22.7100 821.0000 1.0000
22.7200 871.0000 1.0000
22.7300 801.0000 1.0000
22.7400 863.0000 1.0000
22.7500 859.0000 1.0000
22.7600 885.0000 1.0000
22.7700 867.0000 1.0000
22.7800 795.0000 1.0000
22.7900 853.0000 1.0000
22.8000 807.0000 1.0000
22.8100 851.0000 1.0000
22.8200 892.0000 1.0000
22.8300 862.0000 1.0000
22.8400 841.0000 1.0000
22.8500 805.0000 1.0000
22.8600 809.0000 1.0000
22.8700 818.0000 1.0000
22.8800 845.0000 1.0000
22.8900 856.0000 1.0000
22.9000 873.0000 1.0000
22.9100 809.0000 1.0000
22.9200 814.0000 1.0000
22.9300 813.0000 1.0000
22.9400 837.0000 1.0000
22.9500 842.0000 1.0000
22.9600 832.0000 1.0000
22.9700 796.0000 1.0000
22.9800 877.0000 1.0000
22.9900 831.0000 1.0000
23.0000 798.0000 1.0000
23.0100 862.0000 1.0000
23.0200 806.0000 1.0000
23.0300 845.0000 1.0000
23.0400 831.0000 1.0000
23.0500 853.0000 1.0000
23.0600 865.0000 1.0000
23.0700 881.0000 1.0000
23.0800 861.0000 1.0000
23.0900 841.0000 1.0000
23.1000 833.0000 1.0000
23.1100 849.0000 1.0000
23.1200 781.0000 1.0000
23.1300 817.0000 1.0000
23.1400 830.0000 1.0000
23.1500 809.0000 1.0000
23.1600 787.0000 1.0000
23.1700 857.0000 1.0000
23.1800 860.0000 1.0000
23.1900 840.0000 1.0000
23.2000 833.0000 1.0000
23.2100 878.0000 1.0000
23.2200 797.0000 1.0000
23.2300 864.0000 1.0000
23.2400 885.0000 1.0000
23.2500 847.0000 1.0000
23.2600 835.0000 1.0000
23.2700 833.0000 1.0000
23.2800 825.0000 1.0000
23.2900 858.0000 1.0000
23.3000 859.0000 1.0000
23.3100 832.0000 1.0000
23.3200 828.0000 1.0000
23.3300 799.0000 1.0000
23.3400 814.0000 1.0000
23.3500 816.0000 1.0000
23.3600 815.0000 1.0000
23.3700 866.0000 1.0000
23.3800 887.0000 1.0000
23.3900 853.0000 1.0000
23.4000 817.0000 1.0000
23.4100 795.0000 1.0000
23.4200 821.0000 1.0000
23.4300 812.0000 1.0000
23.4400 837.0000 1.0000
23.4500 813.0000 1.0000
23.4600 847.0000 1.0000
23.4700 845.0000 1.0000
23.4800 873.0000 1.0000
23.4900 858.0000 1.0000
23.5000 843.0000 1.0000
23.5100 836.0000 1.0000
23.5200 870.0000 1.0000
23.5300 831.0000 1.0000
23.5400 833.0000 1.0000
23.5500 848.0000 1.0000
23.5600 804.0000 1.0000
