RamanScope Measure Spectrum Data V3.72

<< MEASURE CONDITION >>
Exposure Type,Aver
Exposure Time [sec],15
Exposure Count,30
Measure Time,2023/07/11 21:01:22
Data Name,""
Data Comment,""
Rayleigh Wave[nm],532.0

<< SAMPLE SPECTRUM >>
Wave[dcm-1],No608
146.591,865.83
147.626,1001.07
148.664,1155.53
149.699,1280.33
150.737,1438.03
151.772,1558.53
152.809,1711.23
153.846,1810.10
154.881,1929.30
155.918,2006.30
156.953,2072.23
157.989,2160.67
159.026,2157.23
160.060,2213.77
161.096,2282.57
162.130,2321.90
163.167,2328.13
164.200,2354.67
165.236,2413.20
166.272,2426.73
167.305,2494.83
168.341,2556.10
169.374,2613.80
170.409,2603.63
171.445,2642.47
172.477,2689.63
173.512,2721.63
174.545,2738.27
175.580,2776.03
176.614,2717.27
177.647,2790.80
178.681,2797.47
179.713,2801.70
180.747,2758.63
181.781,2769.57
182.813,2696.93
183.847,2719.37
184.878,2715.13
185.912,2721.90
186.945,2738.93
187.976,2753.43
189.010,2734.77
190.043,2676.60
191.073,2768.23
192.106,2811.17
193.137,2796.83
194.170,2816.73
195.202,2867.43
196.232,2849.87
197.265,2888.00
198.297,2882.20
199.327,2946.30
200.359,2947.13
201.388,3020.03
202.420,3022.43
203.452,3072.07
204.481,3116.57
205.512,3160.40
206.544,3208.63
207.573,3311.67
208.604,3350.80
209.635,3412.80
210.663,3564.53
211.694,3619.97
212.725,3723.13
213.753,3786.10
214.783,3892.73
215.813,3901.27
216.841,3973.13
217.871,4023.63
218.899,4040.43
219.929,4022.40
220.959,3969.93
221.986,3963.23
223.016,3827.33
224.045,3768.33
225.072,3682.40
226.101,3578.67
227.130,3495.43
228.157,3500.30
229.185,3398.20
230.214,3378.67
231.241,3333.63
232.269,3247.43
233.297,3224.47
234.323,3192.50
235.351,3168.03
236.379,3125.00
237.407,3144.27
238.433,3133.17
239.460,3132.63
240.488,3145.47
241.513,3149.30
242.540,3171.37
243.568,3208.83
244.592,3213.00
245.619,3190.03
246.646,3165.03
247.671,3158.50
248.697,3195.03
249.724,3177.50
250.748,3117.97
251.774,3141.43
252.801,3146.33
253.827,3139.87
254.850,3171.83
255.876,3146.13
256.902,3197.03
257.925,3148.87
258.951,3221.73
259.976,3258.40
260.999,3241.17
262.024,3290.40
263.049,3267.00
264.074,3327.20
265.097,3383.63
266.122,3408.60
267.146,3436.10
268.168,3436.60
269.193,3489.50
270.217,3570.03
271.241,3579.10
272.263,3598.07
273.287,3608.80
274.311,3680.47
275.332,3693.97
276.356,3729.43
277.379,3714.10
278.402,3734.57
279.424,3726.17
280.447,3741.87
281.470,3654.70
282.492,3628.80
283.513,3593.73
284.536,3596.03
285.558,3539.87
286.581,3496.37
287.601,3440.50
288.623,3445.67
289.645,3325.63
290.665,3363.53
291.687,3278.73
292.709,3188.60
293.730,3138.73
294.750,3137.97
295.771,3097.90
296.792,3053.23
297.813,2974.30
298.832,2984.43
299.853,2956.70
300.874,2860.53
301.895,2849.13
302.913,2850.40
303.934,2785.83
304.954,2791.57
305.975,2787.53
306.993,2721.60
308.013,2747.90
309.033,2682.60
310.052,2642.10
311.072,2653.10
312.090,2606.23
313.109,2620.80
314.129,2578.63
315.148,2536.07
316.165,2588.13
317.184,2622.83
318.203,2537.87
319.222,2554.87
320.238,2515.60
321.257,2518.37
322.275,2567.43
323.294,2502.23
324.312,2495.67
325.328,2506.40
326.346,2510.03
327.364,2467.80
328.382,2513.40
329.397,2492.13
330.415,2484.30
331.432,2507.20
332.450,2451.13
333.467,2448.07
334.482,2413.73
335.499,2422.30
336.516,2452.17
337.533,2468.57
338.547,2439.83
339.564,2434.47
340.580,2437.97
341.597,2410.43
342.613,2407.70
343.627,2410.37
344.643,2410.10
345.659,2384.83
346.675,2405.93
347.690,2388.53
348.704,2398.07
349.719,2377.00
350.735,2422.27
351.750,2463.23
352.765,2408.93
353.778,2454.00
354.793,2371.63
355.808,2420.17
356.822,2428.53
357.837,2389.83
358.851,2422.57
359.864,2448.00
360.878,2451.53
361.892,2442.40
362.906,2431.83
363.920,2432.77
364.932,2432.27
365.945,2482.93
366.959,2487.40
367.972,2471.37
368.986,2493.57
369.999,2498.30
371.010,2476.47
372.023,2485.50
373.036,2486.10
374.049,2518.07
375.061,2513.77
376.072,2512.57
377.084,2593.70
378.097,2548.03
379.109,2570.77
380.121,2553.87
381.133,2558.80
382.143,2534.23
383.155,2637.23
384.166,2586.63
385.178,2598.83
386.189,2611.57
387.201,2617.43
388.212,2621.73
389.221,2623.47
390.232,2564.90
391.243,2615.87
392.254,2609.67
393.264,2597.73
394.275,2554.10
395.283,2568.77
396.294,2560.53
397.304,2585.53
398.314,2580.07
399.324,2516.13
400.334,2507.90
401.344,2501.30
402.351,2464.03
403.361,2469.80
404.370,2468.13
405.380,2421.30
406.389,2456.80
407.398,2448.43
408.407,2431.20
409.414,2489.10
410.423,2380.73
411.431,2395.97
412.440,2373.13
413.448,2359.20
414.457,2399.57
415.465,2342.37
416.471,2332.67
417.479,2291.83
418.487,2331.37
419.495,2294.77
420.503,2292.20
421.510,2310.57
422.518,2281.10
423.525,2282.33
424.530,2299.50
425.537,2295.40
426.544,2286.97
427.551,2293.87
428.558,2268.73
429.565,2254.17
430.571,2325.30
431.578,2275.60
432.582,2287.87
433.588,2239.57
434.595,2287.90
435.601,2250.00
436.607,2269.60
437.612,2235.77
438.618,2240.67
439.624,2245.17
440.627,2222.93
441.633,2254.53
442.638,2234.40
443.643,2226.90
444.648,2254.90
445.653,2264.67
446.658,2252.33
447.663,2294.47
448.667,2176.20
449.672,2264.43
450.674,2222.87
451.678,2272.77
452.682,2254.23
453.687,2236.87
454.690,2216.53
455.694,2245.07
456.698,2243.40
457.702,2270.20
458.705,2229.23
459.709,2281.50
460.710,2226.60
461.713,2269.03
462.716,2290.67
463.719,2296.40
464.722,2275.27
465.725,2229.47
466.727,2212.13
467.730,2258.13
468.732,2245.10
469.735,2290.83
470.737,2275.00
471.737,2295.57
472.739,2286.30
473.741,2294.73
474.742,2265.47
475.744,2287.10
476.746,2272.17
477.747,2282.70
478.748,2300.03
479.750,2283.57
480.751,2292.77
481.752,2283.37
482.753,2281.43
483.751,2270.33
484.752,2304.40
485.753,2257.63
486.753,2280.57
487.753,2217.87
488.754,2246.23
489.754,2255.70
490.754,2248.27
491.754,2303.83
492.754,2245.83
493.753,2255.97
494.753,2252.93
495.752,2230.17
496.752,2242.67
497.749,2210.17
498.748,2236.23
499.747,2184.73
500.746,2175.47
501.745,2191.67
502.744,2220.97
503.742,2198.37
504.741,2179.70
505.739,2170.67
506.737,2233.40
507.735,2204.20
508.734,2210.33
509.732,2168.60
510.729,2185.57
511.727,2214.10
512.725,2138.73
513.720,2162.93
514.718,2190.93
515.715,2128.27
516.712,2160.77
517.709,2163.83
518.706,2167.83
519.703,2143.30
520.700,2117.00
521.696,2124.57
522.693,2154.27
523.689,2135.77
524.686,2103.77
525.682,2109.93
526.678,2161.37
527.674,2160.33
528.670,2162.10
529.666,2107.80
530.661,2140.00
531.657,2158.50
532.652,2086.20
533.648,2163.07
534.641,2118.10
535.636,2086.17
536.631,2139.17
537.626,2183.50
538.621,2159.17
539.616,2103.30
540.610,2130.90
541.605,2119.87
542.599,2140.67
543.593,2144.53
544.587,2121.30
545.581,2138.80
546.575,2124.90
547.569,2177.37
548.563,2139.90
549.557,2139.67
550.550,2095.50
551.543,2151.33
552.537,2105.13
553.530,2126.40
554.523,2139.53
555.516,2103.93
556.509,2101.57
557.502,2118.53
558.494,2082.73
559.487,2069.33
560.479,2063.50
561.472,2040.10
562.464,2071.63
563.456,2134.20
564.448,2129.00
565.440,2048.73
566.432,2091.53
567.423,2094.93
568.415,2103.20
569.404,2120.03
570.396,2126.13
571.387,2099.90
572.378,2109.27
573.369,2115.90
574.360,2111.77
575.351,2156.17
576.341,2087.97
577.332,2071.17
578.323,2133.10
579.313,2144.30
580.303,2128.03
581.293,2089.27
582.283,2094.90
583.273,2149.50
584.263,2074.33
585.253,2147.00
586.243,2062.33
587.232,2106.90
588.222,2110.07
589.211,2071.87
590.200,2048.70
591.189,2066.73
592.178,2055.73
593.167,2046.77
594.156,2036.97
595.145,2060.87
596.133,2065.53
597.122,2016.30
598.110,2009.97
599.098,2025.57
600.086,2038.20
601.074,1996.13
602.062,1968.47
603.050,2017.10
604.038,2023.50
605.025,1989.03
606.013,1998.30
607.000,2009.33
607.987,1953.33
608.975,1931.03
609.962,2006.53
610.949,1922.20
611.936,1933.67
612.922,1949.47
613.909,1906.53
614.895,1756.63
615.882,1922.00
616.868,1925.40
617.854,1882.80
618.841,1897.70
619.826,1862.47
620.812,1828.00
621.798,1843.40
622.784,1860.97
623.769,1835.37
624.755,1852.53
625.740,1782.50
626.725,1817.23
627.711,1820.70
628.698,1807.07
629.683,1794.47
630.667,1772.53
631.652,1781.80
632.637,1747.73
633.621,1766.50
634.606,1687.53
635.590,1766.00
636.574,1738.57
637.558,1746.93
638.542,1700.87
639.526,1744.60
640.510,1709.00
641.493,1722.67
642.477,1745.73
643.460,1678.43
644.444,1655.47
645.427,1678.53
646.410,1625.70
647.393,1635.63
648.376,1623.90
649.359,1601.90
650.341,1652.20
651.324,1650.40
652.307,1635.47
653.289,1611.67
654.271,1599.20
655.253,1590.60
656.235,1582.93
657.217,1616.53
658.199,1607.77
659.181,1594.67
660.163,1549.47
661.144,1540.20
662.126,1558.73
663.107,1527.33
664.088,1628.93
665.069,1531.00
666.050,1576.93
667.033,1548.53
668.014,1485.10
668.995,1550.80
669.975,1546.87
670.956,1523.47
671.936,1517.37
672.916,1524.77
673.896,1529.17
674.876,1515.43
675.856,1490.23
676.836,1460.30
677.816,1467.37
678.795,1492.90
679.775,1484.43
680.754,1437.63
681.734,1438.17
682.713,1424.60
683.692,1436.77
684.671,1436.97
685.650,1415.53
686.629,1447.97
687.607,1367.63
688.586,1425.20
689.564,1413.43
690.543,1386.17
691.523,1384.07
692.501,1398.27
693.479,1398.50
694.457,1367.47
695.435,1355.67
696.413,1345.47
697.390,1340.30
698.368,1309.57
699.345,1316.43
700.322,1346.60
701.300,1340.07
702.277,1322.93
703.254,1331.03
704.231,1313.77
705.207,1366.23
706.184,1335.80
707.161,1299.97
708.137,1328.47
709.113,1311.77
710.090,1293.37
711.068,1302.23
712.044,1284.80
713.020,1263.37
713.996,1297.80
714.971,1258.83
715.947,1281.77
716.922,1283.80
717.898,1245.40
718.873,1239.70
719.848,1258.80
720.823,1267.87
721.798,1271.33
722.773,1192.90
723.748,1226.30
724.723,1216.80
725.697,1211.17
726.672,1211.50
727.646,1219.23
728.622,1232.47
729.596,1197.20
730.570,1225.17
731.544,1219.70
732.518,1243.07
733.492,1185.53
734.466,1171.87
735.439,1181.90
736.413,1241.00
737.386,1142.50
738.359,1155.43
739.332,1200.43
740.305,1167.73
741.278,1174.83
742.251,1184.77
743.224,1184.17
744.196,1187.90
745.171,1187.70
746.143,1157.10
747.115,1131.87
748.087,1158.80
749.059,1128.37
750.031,1131.50
751.003,1111.43
751.975,1134.60
752.947,1142.50
753.918,1118.43
754.890,1126.77
755.861,1161.07
756.832,1140.77
757.803,1150.03
758.774,1066.00
759.747,1106.67
760.718,1060.30
761.689,1091.90
762.659,1121.10
763.630,1115.67
764.600,1062.37
765.570,1111.40
766.540,1075.43
767.510,1066.07
768.480,1071.90
769.450,1125.67
770.420,1060.10
771.390,1093.30
772.359,1086.13
773.329,1074.20
774.300,1052.27
775.269,1060.10
776.238,1074.00
777.207,1119.90
778.176,1095.87
779.145,1044.23
780.114,1043.23
781.083,1069.23
782.051,1028.07
783.019,1027.03
783.988,1072.50
784.956,1027.50
785.924,993.53
786.894,1013.00
787.862,1009.50
788.830,1063.97
789.797,1007.73
790.765,993.67
791.732,1031.77
792.700,1042.57
793.667,1047.00
794.634,1043.13
795.601,996.40
796.568,987.40
797.535,980.87
798.502,1026.47
799.468,1036.97
800.437,986.00
801.403,989.77
802.370,984.97
803.336,1016.97
804.302,994.00
805.268,995.20
806.234,953.57
807.200,989.30
808.166,1023.63
809.131,992.27
810.097,993.30
811.062,979.50
812.027,989.50
812.994,990.20
813.960,959.43
814.925,953.23
815.889,1009.23
816.854,975.07
817.819,949.43
818.783,957.70
819.748,989.87
820.712,957.43
821.677,926.43
822.641,1003.07
823.605,1011.13
824.571,993.63
825.534,995.70
826.498,974.17
827.462,1022.27
828.425,974.57
829.389,1000.30
830.352,1017.30
831.315,1023.67
832.279,1008.13
833.242,989.63
834.204,996.90
835.167,1016.43
836.132,1028.80
837.095,1023.50
838.057,1008.80
839.020,1052.10
839.982,1028.87
840.944,1014.67
841.906,1047.40
842.868,1040.17
843.830,1010.00
844.792,1028.57
845.753,999.60
846.715,1001.20
847.679,1017.43
848.640,1029.77
849.601,1043.30
850.562,1059.73
851.523,1052.97
852.484,1055.73
853.445,1019.30
854.406,1055.13
855.367,1066.80
856.327,1078.77
857.288,1031.83
858.248,1051.10
859.210,1021.27
860.170,1075.70
861.130,1059.20
862.090,1060.47
863.050,1085.60
864.010,1087.40
864.969,1091.73
865.929,1061.67
866.888,1077.10
867.848,1085.67
868.807,1127.30
869.766,1103.43
870.727,1087.80
871.686,1103.07
872.645,1100.53
873.604,1113.97
874.562,1105.73
875.521,1093.50
876.479,1101.97
877.437,1101.77
878.396,1060.10
879.354,1111.83
880.312,1095.47
881.270,1108.93
882.229,1103.93
883.187,1134.20
884.145,1136.57
885.102,1120.53
886.059,1101.00
887.017,1106.97
887.974,1102.13
888.931,1116.67
889.888,1098.03
890.845,1096.77
891.802,1156.73
892.758,1140.93
893.717,1136.13
894.673,1146.20
895.630,1124.67
896.586,1117.07
897.542,1135.90
898.498,1116.07
899.454,1110.37
900.410,1131.73
901.366,1149.37
902.321,1170.33
903.277,1149.17
904.232,1144.17
905.189,1151.40
906.145,1151.10
907.100,1114.83
908.055,1148.70
909.010,1154.90
909.965,1160.90
910.919,1161.13
911.874,1106.37
912.828,1130.03
913.783,1153.30
914.737,1148.60
915.693,1158.37
916.648,1159.70
917.602,1110.80
918.555,1090.10
919.509,1221.30
920.463,1105.07
921.417,1113.13
922.370,1103.23
923.324,1131.03
924.277,1098.20
925.230,1137.33
926.183,1094.97
927.138,1120.77
928.091,1086.97
929.044,1136.23
929.996,1133.93
930.949,1128.00
931.902,1098.60
932.854,1097.30
933.806,1091.30
934.758,1113.13
935.711,1138.73
936.663,1062.13
937.614,1104.77
938.568,1119.00
939.520,1094.43
940.471,1112.20
941.423,1078.33
942.374,1097.93
943.326,1084.97
944.277,1077.73
945.228,1069.33
946.179,1139.40
947.130,1076.57
948.080,1078.93
949.031,1074.67
949.984,1080.67
950.934,1070.43
951.884,1094.57
952.835,1048.10
953.785,1077.30
954.735,1075.90
955.685,1060.43
956.635,1046.80
957.585,1080.20
958.534,1032.17
959.484,1035.67
960.433,1095.33
961.383,1044.53
962.334,1051.00
963.283,1038.03
964.232,1078.07
965.181,1073.60
966.130,1024.90
967.079,1046.83
968.027,1063.73
968.976,1028.97
969.924,1011.30
970.873,1016.17
971.821,1051.90
972.769,1005.30
973.719,1041.83
974.667,1038.73
975.615,1039.40
976.562,994.73
977.510,1020.63
978.458,1008.97
979.405,1024.37
980.352,1022.37
981.300,1013.30
982.247,1031.60
983.194,1041.03
984.141,1011.17
985.088,1003.47
986.036,1000.90
986.983,964.93
987.930,1010.53
988.876,1025.70
989.822,1007.70
990.769,978.63
991.715,995.23
992.661,1000.67
993.607,1004.00
994.553,969.73
995.498,998.70
996.444,971.83
997.389,1019.90
998.337,988.50
999.282,983.90
1000.227,1022.83
1001.173,986.67
1002.118,962.80
1003.062,957.47
1004.007,944.63
1004.952,996.97
1005.897,944.60
1006.841,989.47
1007.786,989.80
1008.730,994.27
1009.674,994.03
1010.618,1019.80
1011.564,945.53
1012.508,967.53
1013.452,993.23
1014.396,988.50
1015.339,966.50
1016.283,975.97
1017.226,963.83
1018.170,945.03
1019.113,956.60
1020.056,955.40
1020.999,960.27
1021.942,975.77
1022.885,957.90
1023.828,948.57
1024.770,996.30
1025.715,964.03
1026.657,959.43
1027.600,949.00
1028.542,968.60
1029.484,961.57
1030.426,965.93
1031.368,983.33
1032.310,931.03
1033.251,980.10
1034.193,943.60
1035.135,969.43
1036.076,963.97
1037.017,951.30
1037.959,917.93
1038.900,935.07
1039.843,949.73
1040.784,1000.10
1041.725,984.77
1042.665,955.53
1043.606,940.70
1044.547,935.37
1045.487,941.17
1046.427,929.27
1047.368,980.73
1048.308,967.87
1049.248,920.23
1050.188,934.23
1051.128,937.67
1052.067,957.77
1053.007,994.07
1053.947,968.47
1054.886,988.03
1055.827,959.03
1056.766,947.43
1057.706,944.30
1058.645,952.27
1059.584,944.73
1060.522,957.47
1061.461,959.60
1062.400,957.80
1063.338,949.33
1064.277,954.83
1065.215,935.10
1066.154,978.73
1067.092,954.40
1068.030,923.80
1068.968,949.77
1069.906,944.60
1070.843,964.53
1071.781,947.50
1072.720,974.17
1073.658,965.37
1074.595,951.77
1075.533,952.67
1076.470,942.70
1077.407,944.10
1078.344,953.03
1079.281,974.40
1080.217,954.00
1081.154,927.53
1082.091,935.93
1083.027,972.60
1083.964,989.67
1084.900,935.53
1085.836,938.67
1086.772,931.53
1087.708,936.17
1088.644,937.70
1089.580,871.27
1090.515,939.70
1091.451,908.90
1092.388,943.63
1093.324,911.57
1094.259,926.50
1095.194,934.33
1096.129,915.33
1097.064,907.53
1097.999,900.63
1098.934,879.60
1099.869,895.97
1100.803,905.40
1101.738,890.50
1102.672,865.97
1103.607,900.87
1104.541,878.70
1105.475,839.90
1106.409,914.87
1107.343,835.90
1108.277,889.50
1109.210,882.33
1110.144,860.83
1111.078,864.73
1112.011,872.37
1112.944,849.23
1113.878,827.03
1114.811,851.80
1115.744,904.13
1116.678,825.07
1117.611,816.63
1118.544,842.87
1119.477,805.73
1120.409,822.23
1121.342,846.90
1122.274,820.53
1123.206,850.40
1124.138,819.70
1125.070,825.30
1126.002,773.03
1126.934,818.57
1127.866,794.00
1128.798,769.07
1129.729,800.37
1130.661,787.17
1131.592,760.70
1132.523,768.43
1133.454,822.80
1134.385,756.23
1135.317,748.00
1136.247,754.30
1137.178,769.93
1138.109,774.87
1139.039,776.63
1139.970,732.20
1140.900,754.90
1141.831,747.23
1142.761,755.20
1143.691,702.00
1144.621,772.87
1145.551,723.40
1146.480,746.07
1147.410,787.50
1148.340,750.43
1149.269,743.97
1150.199,741.60
1151.128,720.30
1152.057,703.97
1152.979,734.37
1153.898,750.47
1154.819,729.07
1155.739,792.67
1156.658,759.33
1157.579,733.23
1158.498,723.07
1159.419,727.17
1160.338,717.97
1161.256,713.00
1162.177,696.27
1163.095,712.10
1164.016,723.03
1164.934,688.90
1165.852,736.90
1166.772,716.97
1167.690,649.70
1168.610,706.23
1169.528,742.57
1170.446,740.40
1171.365,712.20
1172.283,695.07
1173.202,697.40
1174.120,711.77
1175.037,688.63
1175.956,683.77
1176.873,724.97
1177.792,694.03
1178.709,702.57
1179.626,692.70
1180.544,717.67
1181.461,725.63
1182.379,712.80
1183.296,710.50
1184.212,672.97
1185.130,688.47
1186.046,699.53
1186.962,698.53
1187.880,690.90
1188.796,733.57
1189.714,758.37
1190.629,713.40
1191.545,735.67
1192.462,692.40
1193.378,741.20
1194.295,738.40
1195.210,719.20
1196.125,741.60
1197.042,728.37
1197.957,720.97
1198.872,699.57
1199.788,692.67
1200.703,716.27
1201.619,714.13
1202.534,690.10
1203.448,674.27
1204.364,731.10
1205.278,700.63
1206.192,699.57
1207.108,705.73
1208.022,683.50
1208.938,704.43
1209.851,699.60
1210.765,655.33
1211.680,733.00
1212.594,701.37
1213.507,711.73
1214.422,697.80
1215.335,678.83
1216.248,720.40
1217.163,718.00
1218.076,712.30
1218.990,713.00
1219.903,709.57
1220.816,708.13
1221.730,754.77
1222.642,720.57
1223.554,711.13
1224.469,714.17
1225.380,742.87
1226.292,728.40
1227.206,712.93
1228.118,731.70
1229.032,738.97
1229.943,728.87
1230.855,715.60
1231.768,733.40
1232.679,691.93
1233.590,717.33
1234.503,762.13
1235.414,728.17
1236.325,759.93
1237.238,764.53
1238.149,718.27
1239.059,718.53
1239.972,771.40
1240.882,765.17
1241.793,740.40
1242.705,742.90
1243.615,718.50
1244.525,789.90
1245.437,734.73
1246.347,737.83
1247.259,723.40
1248.168,805.40
1249.078,713.83
1249.989,740.00
1250.899,724.70
1251.808,745.40
1252.719,781.33
1253.628,770.63
1254.537,740.07
1255.448,751.33
1256.357,776.70
1257.266,799.60
1258.176,736.97
1259.085,758.90
1259.993,777.67
1260.904,776.43
1261.812,745.17
1262.720,690.67
1263.630,733.87
1264.538,756.77
1265.446,760.10
1266.356,808.10
1267.263,760.07
1268.171,777.43
1269.080,768.00
1269.988,782.40
1270.895,749.17
1271.804,741.77
1272.711,774.80
1273.619,755.80
1274.527,779.03
1275.434,714.53
1276.341,758.30
1277.248,730.37
1278.156,756.20
1279.063,736.13
1279.969,775.77
1280.877,725.43
1281.783,773.43
1282.690,737.77
1283.598,726.53
1284.503,752.47
1285.409,773.83
1286.317,774.40
1287.223,741.17
1288.128,762.73
1289.036,758.97
1289.941,729.57
1290.846,773.23
1291.751,730.23
1292.658,749.50
1293.563,760.93
1294.468,717.60
1295.375,777.83
1296.280,739.60
1297.184,747.30
1298.091,722.83
1298.995,756.50
1299.900,748.80
1300.806,728.23
1301.710,722.23
1302.614,735.70
1303.518,751.67
1304.424,743.33
1305.327,714.87
1306.231,748.27
1307.137,727.60
1308.040,717.23
1308.943,721.07
1309.847,743.97
1310.752,698.43
1311.655,722.57
1312.558,690.00
1313.463,692.27
1314.366,714.67
1315.269,701.57
1316.171,715.27
1317.076,684.07
1317.978,725.33
1318.881,712.67
1319.785,685.17
1320.687,711.97
1321.589,691.23
1322.491,683.30
1323.395,673.93
1324.297,656.20
1325.198,667.07
1326.102,648.93
1327.004,659.20
1327.905,719.20
1328.806,659.13
1329.709,661.53
1330.611,633.17
1331.512,697.73
1332.413,637.37
1333.316,658.47
1334.216,650.90
1335.117,682.70
1336.020,625.73
1336.920,669.03
1337.821,647.93
1338.721,636.07
1339.623,606.70
1340.523,656.40
1341.423,602.00
1342.323,610.80
1343.225,668.63
1344.125,639.23
