RamanScope Measure Spectrum Data V3.72

<< MEASURE CONDITION >>
Exposure Type,Aver
Exposure Time [sec],15
Exposure Count,30
Measure Time,2023/07/07 12:10:33
Data Name,""
Data Comment,""
Rayleigh Wave[nm],532.0

<< SAMPLE SPECTRUM >>
Wave[dcm-1],No528
146.591,822.93
147.626,997.03
148.664,1154.40
149.699,1348.60
150.737,1547.77
151.772,1744.70
152.809,1901.50
153.846,2080.13
154.881,2221.83
155.918,2360.97
156.953,2469.07
157.989,2538.17
159.026,2645.60
160.060,2641.17
161.096,2728.63
162.130,2761.90
163.167,2840.33
164.200,2861.73
165.236,2893.13
166.272,2944.00
167.305,3016.50
168.341,3086.67
169.374,3130.87
170.409,3205.67
171.445,3250.30
172.477,3355.60
173.512,3398.63
174.545,3422.23
175.580,3467.47
176.614,3457.80
177.647,3449.13
178.681,3442.17
179.713,3441.53
180.747,3375.10
181.781,3318.20
182.813,3275.60
183.847,3289.80
184.878,3211.47
185.912,3236.10
186.945,3219.37
187.976,3241.77
189.010,3196.37
190.043,3221.83
191.073,3214.10
192.106,3260.30
193.137,3275.53
194.170,3259.90
195.202,3286.83
196.232,3298.67
197.265,3344.20
198.297,3397.43
199.327,3409.23
200.359,3439.63
201.388,3444.43
202.420,3512.57
203.452,3547.90
204.481,3517.53
205.512,3573.23
206.544,3669.87
207.573,3656.80
208.604,3748.03
209.635,3795.20
210.663,3870.73
211.694,3882.07
212.725,3990.83
213.753,4074.10
214.783,4143.30
215.813,4168.20
216.841,4214.47
217.871,4275.60
218.899,4265.67
219.929,4280.97
220.959,4261.57
221.986,4272.27
223.016,4241.90
224.045,4234.93
225.072,4186.23
226.101,4141.73
227.130,4075.30
228.157,3964.67
229.185,3966.90
230.214,3936.37
231.241,3878.30
232.269,3847.37
233.297,3807.30
234.323,3842.67
235.351,3773.77
236.379,3749.50
237.407,3731.27
238.433,3723.87
239.460,3738.27
240.488,3766.23
241.513,3799.27
242.540,3826.73
243.568,3873.37
244.592,3930.33
245.619,3942.03
246.646,3940.27
247.671,3966.73
248.697,3955.60
249.724,3944.47
250.748,3892.50
251.774,3864.13
252.801,3858.90
253.827,3815.43
254.850,3837.30
255.876,3837.27
256.902,3789.07
257.925,3859.20
258.951,3902.30
259.976,3849.27
260.999,3819.97
262.024,3935.33
263.049,3906.40
264.074,3983.10
265.097,3962.00
266.122,3991.97
267.146,4031.43
268.168,4021.13
269.193,4026.33
270.217,4104.90
271.241,4120.70
272.263,4191.00
273.287,4167.90
274.311,4260.57
275.332,4254.47
276.356,4305.33
277.379,4248.03
278.402,4268.97
279.424,4293.57
280.447,4290.20
281.470,4285.83
282.492,4234.37
283.513,4169.53
284.536,4154.80
285.558,4123.90
286.581,4120.03
287.601,4041.47
288.623,3969.97
289.645,3959.13
290.665,3891.20
291.687,3824.60
292.709,3764.97
293.730,3727.67
294.750,3701.93
295.771,3666.60
296.792,3623.10
297.813,3616.40
298.832,3564.77
299.853,3515.73
300.874,3466.40
301.895,3482.90
302.913,3404.30
303.934,3372.63
304.954,3317.53
305.975,2317.10
306.993,3302.20
308.013,3268.17
309.033,3247.23
310.052,3210.20
311.072,3216.27
312.090,3159.67
313.109,3173.40
314.129,3097.03
315.148,3132.80
316.165,3132.07
317.184,3077.83
318.203,3074.03
319.222,3015.60
320.238,3090.97
321.257,3068.77
322.275,3028.50
323.294,3008.43
324.312,2975.73
325.328,2978.83
326.346,2945.37
327.364,2973.23
328.382,3049.07
329.397,2990.40
330.415,2916.10
331.432,2911.43
332.450,2925.47
333.467,2894.53
334.482,2926.80
335.499,2915.60
336.516,2901.00
337.533,2905.00
338.547,2876.60
339.564,2873.30
340.580,2876.53
341.597,2889.07
342.613,2849.20
343.627,2854.63
344.643,2815.07
345.659,2811.57
346.675,2822.87
347.690,2809.23
348.704,2830.67
349.719,2839.53
350.735,2821.80
351.750,2767.90
352.765,2822.70
353.778,2805.87
354.793,2763.30
355.808,2812.07
356.822,2779.50
357.837,2825.17
358.851,2804.53
359.864,2782.70
360.878,2812.17
361.892,2839.93
362.906,2862.70
363.920,2833.90
364.932,2830.83
365.945,2791.70
366.959,2851.70
367.972,2838.70
368.986,2871.33
369.999,2844.50
371.010,2866.60
372.023,2879.60
373.036,2889.00
374.049,2907.80
375.061,2848.40
376.072,2910.93
377.084,2912.03
378.097,2945.63
379.109,2975.47
380.121,2952.20
381.133,2956.77
382.143,2958.70
383.155,2932.57
384.166,2954.23
385.178,2979.53
386.189,2946.07
387.201,2980.70
388.212,3006.90
389.221,2984.17
390.232,2974.33
391.243,2963.20
392.254,2941.60
393.264,2966.50
394.275,2955.60
395.283,2929.10
396.294,2918.70
397.304,2879.53
398.314,2927.17
399.324,2883.50
400.334,2895.20
401.344,2884.10
402.351,2861.87
403.361,2893.63
404.370,2848.83
405.380,2869.93
406.389,2857.87
407.398,2802.73
408.407,2795.17
409.414,2936.43
410.423,2810.93
411.431,2785.77
412.440,2753.67
413.448,2754.17
414.457,2772.60
415.465,2733.07
416.471,2711.23
417.479,2705.73
418.487,2682.63
419.495,2697.43
420.503,2715.97
421.510,2690.47
422.518,2682.57
423.525,2677.53
424.530,2664.63
425.537,2697.30
426.544,2633.43
427.551,2680.63
428.558,2675.60
429.565,2648.93
430.571,2661.50
431.578,2642.73
432.582,2643.67
433.588,2595.87
434.595,2664.43
435.601,2643.40
436.607,2658.97
437.612,2637.37
438.618,2647.37
439.624,2597.30
440.627,2654.57
441.633,2652.27
442.638,2631.17
443.643,2657.53
444.648,2632.77
445.653,2646.00
446.658,2641.13
447.663,2623.20
448.667,2641.27
449.672,2635.17
450.674,2659.90
451.678,2692.90
452.682,2674.13
453.687,2641.83
454.690,2653.83
455.694,2678.97
456.698,2638.63
457.702,2665.63
458.705,2660.63
459.709,2697.20
460.710,2696.23
461.713,2667.47
462.716,2660.90
463.719,2685.93
464.722,2692.03
465.725,2700.13
466.727,2721.13
467.730,2661.07
468.732,2716.73
469.735,2688.23
470.737,2751.93
471.737,2697.07
472.739,2665.03
473.741,2724.87
474.742,2681.17
475.744,2651.00
476.746,2712.23
477.747,2731.03
478.748,2703.90
479.750,2688.00
480.751,2717.53
481.752,2675.33
482.753,2741.30
483.751,2718.77
484.752,2714.87
485.753,2680.47
486.753,2729.10
487.753,2734.10
488.754,2730.27
489.754,2683.53
490.754,2686.83
491.754,2706.00
492.754,2719.80
493.753,2711.03
494.753,2688.03
495.752,2692.47
496.752,2742.50
497.749,2721.33
498.748,2672.40
499.747,2682.47
500.746,2676.60
501.745,2708.23
502.744,2716.23
503.742,2686.43
504.741,2659.97
505.739,2646.50
506.737,2662.03
507.735,2628.00
508.734,2625.07
509.732,2630.23
510.729,2680.60
511.727,2639.70
512.725,2645.80
513.720,2603.40
514.718,2634.70
515.715,2541.77
516.712,2618.67
517.709,2608.10
518.706,2619.07
519.703,2601.37
520.700,2589.03
521.696,2580.77
522.693,2585.70
523.689,2599.97
524.686,2608.83
525.682,2550.50
526.678,2596.87
527.674,2591.93
528.670,2580.53
529.666,2625.17
530.661,2597.43
531.657,2660.03
532.652,2634.37
533.648,2647.17
534.641,2614.80
535.636,2612.03
536.631,2637.13
537.626,2634.47
538.621,2631.30
539.616,2619.23
540.610,2603.83
541.605,2618.90
542.599,2659.00
543.593,2633.97
544.587,2621.33
545.581,2632.43
546.575,2608.73
547.569,2653.97
548.563,2636.67
549.557,2625.30
550.550,2626.33
551.543,2629.60
552.537,2599.10
553.530,2595.40
554.523,2624.30
555.516,2592.27
556.509,2592.77
557.502,2599.13
558.494,2625.57
559.487,2634.57
560.479,2654.10
561.472,2588.97
562.464,2603.23
563.456,2603.13
564.448,2598.73
565.440,2645.20
566.432,2619.90
567.423,2615.80
568.415,2662.37
569.404,2647.43
570.396,2640.30
571.387,2650.03
572.378,2643.40
573.369,2601.03
574.360,2632.93
575.351,2725.60
576.341,2668.30
577.332,2657.97
578.323,2671.07
579.313,2660.60
580.303,2698.23
581.293,2698.50
582.283,2672.13
583.273,2704.27
584.263,2689.80
585.253,2719.37
586.243,2722.77
587.232,2696.10
588.222,2698.43
589.211,2741.83
590.200,2713.23
591.189,2741.53
592.178,2766.50
593.167,2710.13
594.156,2720.43
595.145,2789.07
596.133,2731.50
597.122,2773.37
598.110,2722.17
599.098,2762.77
600.086,2691.37
601.074,2740.20
602.062,2744.60
603.050,2780.23
604.038,2747.73
605.025,2723.90
606.013,2746.40
607.000,2771.07
607.987,2783.83
608.975,2713.07
609.962,2750.57
610.949,2735.00
611.936,2800.77
612.922,2734.53
613.909,2712.77
614.895,2725.07
615.882,2725.33
616.868,2739.00
617.854,2722.80
618.841,2657.17
619.826,2669.47
620.812,2596.77
621.798,2627.53
622.784,2622.77
623.769,2578.20
624.755,2558.10
625.740,2565.83
626.725,2534.60
627.711,2567.20
628.698,2503.30
629.683,2483.77
630.667,2491.07
631.652,2455.90
632.637,2461.60
633.621,2457.40
634.606,2415.07
635.590,2423.33
636.574,2395.43
637.558,2374.40
638.542,2415.83
639.526,2334.70
640.510,2301.40
641.493,2318.97
642.477,2282.43
643.460,2286.43
644.444,2289.77
645.427,2217.80
646.410,2256.57
647.393,2241.73
648.376,2246.60
649.359,2228.13
650.341,2213.10
651.324,2197.07
652.307,2179.40
653.289,2212.93
654.271,2216.83
655.253,2158.20
656.235,2154.43
657.217,2178.57
658.199,2155.73
659.181,2160.90
660.163,2136.97
661.144,2120.43
662.126,2101.10
663.107,2111.67
664.088,2076.13
665.069,2096.37
666.050,2105.17
667.033,2068.23
668.014,2064.80
668.995,2095.67
669.975,2029.50
670.956,2056.63
671.936,2066.67
672.916,2044.03
673.896,2031.23
674.876,2032.50
675.856,2035.50
676.836,2012.50
677.816,1986.50
678.795,2010.60
679.775,1995.17
680.754,1952.47
681.734,1935.83
682.713,1927.30
683.692,1923.57
684.671,1919.33
685.650,1924.40
686.629,1896.13
687.607,1893.47
688.586,1854.40
689.564,1836.90
690.543,1831.83
691.523,1819.57
692.501,1809.10
693.479,1786.63
694.457,1843.60
695.435,1836.13
696.413,1765.17
697.390,1763.43
698.368,1739.77
699.345,1780.47
700.322,1725.87
701.300,1772.93
702.277,1746.50
703.254,1737.40
704.231,1736.23
705.207,1738.63
706.184,1742.37
707.161,1702.67
708.137,1677.60
709.113,1674.63
710.090,1683.47
711.068,1698.07
712.044,1647.63
713.020,1686.47
713.996,1666.63
714.971,1667.27
715.947,1613.83
716.922,1628.33
717.898,1623.23
718.873,1632.03
719.848,1647.67
720.823,1645.40
721.798,1611.40
722.773,1628.50
723.748,1596.00
724.723,1573.67
725.697,1589.97
726.672,1581.77
727.646,1567.87
728.622,1564.20
729.596,1542.13
730.570,1604.70
731.544,1528.33
732.518,1596.80
733.492,1574.53
734.466,1512.33
735.439,1565.60
736.413,1628.50
737.386,1575.60
738.359,1546.23
739.332,1520.50
740.305,1509.63
741.278,1545.63
742.251,1511.47
743.224,1504.67
744.196,1542.57
745.171,1491.07
746.143,1483.80
747.115,1487.93
748.087,1527.53
749.059,1493.73
750.031,1492.70
751.003,1532.23
751.975,1480.80
752.947,1481.63
753.918,1493.77
754.890,1469.37
755.861,1440.37
756.832,1435.57
757.803,1463.50
758.774,1445.03
759.747,1436.77
760.718,1432.07
761.689,1425.83
762.659,1443.20
763.630,1450.43
764.600,1403.13
765.570,1385.97
766.540,1409.17
767.510,1426.20
768.480,1432.53
769.450,1369.97
770.420,1420.93
771.390,1361.80
772.359,1382.57
773.329,1371.40
774.300,1385.50
775.269,1387.67
776.238,1340.40
777.207,1358.47
778.176,1338.97
779.145,1338.50
780.114,1361.50
781.083,1372.47
782.051,1384.53
783.019,1324.33
783.988,1321.90
784.956,1370.47
785.924,1340.37
786.894,1244.77
787.862,1321.63
788.830,1330.17
789.797,1314.13
790.765,1307.80
791.732,1285.03
792.700,1325.73
793.667,1272.50
794.634,1294.03
795.601,1293.33
796.568,1291.13
797.535,1273.57
798.502,1275.17
799.468,1298.73
800.437,1270.57
801.403,1276.97
802.370,1258.77
803.336,1248.93
804.302,1267.87
805.268,1251.77
806.234,1268.27
807.200,1259.00
808.166,1261.73
809.131,1251.13
810.097,1272.37
811.062,1231.03
812.027,1235.03
812.994,1209.73
813.960,1244.77
814.925,1250.17
815.889,1209.63
816.854,1263.83
817.819,1230.27
818.783,1219.73
819.748,1244.03
820.712,1224.13
821.677,1258.30
822.641,1252.20
823.605,1218.67
824.571,1246.13
825.534,1227.23
826.498,1221.37
827.462,1231.00
828.425,1243.83
829.389,1245.13
830.352,1240.67
831.315,1239.57
832.279,1226.47
833.242,1216.93
834.204,1214.60
835.167,1240.43
836.132,1266.37
837.095,1240.87
838.057,1248.00
839.020,1216.00
839.982,1201.70
840.944,1245.23
841.906,1238.40
842.868,1201.50
843.830,1241.07
844.792,1217.40
845.753,1215.20
846.715,1244.73
847.679,1217.33
848.640,1201.53
849.601,1227.43
850.562,1185.43
851.523,1230.53
852.484,1280.20
853.445,1198.77
854.406,1242.20
855.367,1223.03
856.327,1222.03
857.288,1224.47
858.248,1269.83
859.210,1224.80
860.170,1229.10
861.130,1218.37
862.090,1248.87
863.050,1256.83
864.010,1213.00
864.969,1257.10
865.929,1201.63
866.888,1232.77
867.848,1223.17
868.807,1216.70
869.766,1242.17
870.727,1262.30
871.686,1219.23
872.645,1263.90
873.604,1248.27
874.562,1188.20
875.521,1297.77
876.479,1251.93
877.437,1244.50
878.396,1275.43
879.354,1249.57
880.312,1244.60
881.270,1285.10
882.229,1245.33
883.187,1258.33
884.145,1268.60
885.102,1230.30
886.059,1230.60
887.017,1263.37
887.974,1244.83
888.931,1269.30
889.888,1280.27
890.845,1236.47
891.802,1241.60
892.758,1239.43
893.717,1255.90
894.673,1248.03
895.630,1229.53
896.586,1266.87
897.542,1246.03
898.498,1260.07
899.454,1301.17
900.410,1243.43
901.366,1256.37
902.321,1211.53
903.277,1280.73
904.232,1211.57
905.189,1260.83
906.145,1268.27
907.100,1264.57
908.055,1217.70
909.010,1264.03
909.965,1234.57
910.919,1264.07
911.874,1225.60
912.828,1249.40
913.783,1208.67
914.737,1227.40
915.693,1270.60
916.648,1232.77
917.602,1262.90
918.555,1231.30
919.509,1292.43
920.463,1227.90
921.417,1298.87
922.370,1210.30
923.324,1260.20
924.277,1237.63
925.230,1250.60
926.183,1258.07
927.138,1217.37
928.091,1217.97
929.044,1201.10
929.996,1254.23
930.949,1239.00
931.902,1250.07
932.854,1225.13
933.806,1229.97
934.758,1238.20
935.711,1233.53
936.663,1244.30
937.614,1244.87
938.568,1223.93
939.520,1224.37
940.471,1252.43
941.423,1212.43
942.374,1247.27
943.326,1200.53
944.277,1212.47
945.228,1213.73
946.179,1218.03
947.130,1193.87
948.080,1237.77
949.031,1185.57
949.984,1217.60
950.934,1208.07
951.884,1199.00
952.835,1202.30
953.785,1217.57
954.735,1175.40
955.685,1212.17
956.635,1194.63
957.585,1203.97
958.534,1197.97
959.484,1210.43
960.433,1176.13
961.383,1181.57
962.334,1205.97
963.283,1231.77
964.232,1193.00
965.181,1156.93
966.130,1181.57
967.079,1152.07
968.027,1189.80
968.976,1181.70
969.924,1174.57
970.873,1232.27
971.821,1130.60
972.769,1179.73
973.719,1172.47
974.667,1168.13
975.615,1186.40
976.562,1129.17
977.510,1157.03
978.458,1173.73
979.405,1144.93
980.352,1160.47
981.300,1143.63
982.247,1155.50
983.194,1189.77
984.141,1154.17
985.088,1148.40
986.036,1140.07
986.983,1154.33
987.930,1178.73
988.876,1198.60
989.822,1177.57
990.769,1191.27
991.715,1175.40
992.661,1149.67
993.607,1159.77
994.553,1106.13
995.498,1169.07
996.444,1154.50
997.389,1175.20
998.337,1169.47
999.282,1172.90
1000.227,1177.17
1001.173,1166.83
1002.118,1162.97
1003.062,1154.17
1004.007,1131.03
1004.952,1124.20
1005.897,1147.00
1006.841,1133.80
1007.786,1135.30
1008.730,1152.20
1009.674,1143.33
1010.618,1133.77
1011.564,1182.20
1012.508,1190.07
1013.452,1136.93
1014.396,1154.20
1015.339,1180.73
1016.283,1187.07
1017.226,1186.83
1018.170,1179.27
1019.113,1171.93
1020.056,1148.93
1020.999,1136.13
1021.942,1174.13
1022.885,1158.30
1023.828,1152.43
1024.770,1164.37
1025.715,1159.47
1026.657,1111.00
1027.600,1164.13
1028.542,1181.00
1029.484,1161.33
1030.426,1177.67
1031.368,1150.70
1032.310,1184.07
1033.251,1135.00
1034.193,1117.40
1035.135,1170.67
1036.076,1159.00
1037.017,1139.13
1037.959,1147.80
1038.900,1159.20
1039.843,1168.87
1040.784,1169.23
1041.725,1167.13
1042.665,1175.87
1043.606,1173.57
1044.547,1198.67
1045.487,1170.60
1046.427,1194.27
1047.368,1185.30
1048.308,1173.70
1049.248,1162.73
1050.188,1189.97
1051.128,1192.70
1052.067,1209.00
1053.007,1218.77
1053.947,1190.90
1054.886,1160.37
1055.827,1179.17
1056.766,1230.83
1057.706,1192.77
1058.645,1186.50
1059.584,1188.70
1060.522,1161.63
1061.461,1226.17
1062.400,1195.70
1063.338,1164.70
1064.277,1197.47
1065.215,1177.50
1066.154,1207.83
1067.092,1189.43
1068.030,1235.43
1068.968,1199.70
1069.906,1212.37
1070.843,1213.60
1071.781,1254.07
1072.720,1233.10
1073.658,1166.50
1074.595,1220.77
1075.533,1233.03
1076.470,1255.47
1077.407,1161.67
1078.344,1246.67
1079.281,1239.57
1080.217,1229.90
1081.154,1221.10
1082.091,1233.93
1083.027,1214.47
1083.964,1243.80
1084.900,1245.83
1085.836,1225.23
1086.772,1229.03
1087.708,1221.23
1088.644,1225.20
1089.580,1211.80
1090.515,1206.33
1091.451,1216.57
1092.388,1209.03
1093.324,1230.30
1094.259,1193.83
1095.194,1241.63
1096.129,1189.87
1097.064,1194.73
1097.999,1227.07
1098.934,1202.83
1099.869,1201.20
1100.803,1222.93
1101.738,1193.83
1102.672,1200.23
1103.607,1170.50
1104.541,1161.53
1105.475,1181.83
1106.409,1191.90
1107.343,1139.13
1108.277,1160.33
1109.210,1124.60
1110.144,1143.43
1111.078,1138.97
1112.011,1116.67
1112.944,1115.90
1113.878,1147.37
1114.811,1157.17
1115.744,1114.87
1116.678,1117.67
1117.611,1120.00
1118.544,1112.03
1119.477,1076.80
1120.409,1093.13
1121.342,1108.57
1122.274,1085.97
1123.206,903.67
1124.138,1105.10
1125.070,1089.60
1126.002,1055.83
1126.934,1027.20
1127.866,1048.60
1128.798,1080.47
1129.729,1057.03
1130.661,1046.33
1131.592,1034.80
1132.523,1031.50
1133.454,1030.37
1134.385,1017.03
1135.317,999.37
1136.247,1025.40
1137.178,1013.40
1138.109,1034.00
1139.039,989.87
1139.970,1019.80
1140.900,942.73
1141.831,1009.90
1142.761,989.53
1143.691,1016.13
1144.621,1018.47
1145.551,993.43
1146.480,985.20
1147.410,1022.97
1148.340,956.23
1149.269,964.17
1150.199,991.37
1151.128,965.57
1152.057,974.83
1152.979,980.53
1153.898,974.37
1154.819,977.57
1155.739,952.83
1156.658,995.73
1157.579,980.87
1158.498,936.60
1159.419,943.47
1160.338,905.60
1161.256,944.60
1162.177,942.53
1163.095,941.80
1164.016,977.93
1164.934,930.10
1165.852,974.00
1166.772,899.60
1167.690,926.10
1168.610,973.63
1169.528,939.13
1170.446,958.67
1171.365,932.00
1172.283,932.63
1173.202,929.03
1174.120,954.57
1175.037,958.00
1175.956,912.43
1176.873,942.40
1177.792,911.63
1178.709,903.53
1179.626,959.00
1180.544,920.70
1181.461,939.80
1182.379,906.80
1183.296,932.03
1184.212,911.67
1185.130,916.93
1186.046,940.03
1186.962,919.67
1187.880,894.03
1188.796,922.17
1189.714,903.93
1190.629,911.47
1191.545,924.27
1192.462,917.60
1193.378,934.67
1194.295,943.80
1195.210,938.63
1196.125,967.23
1197.042,954.90
1197.957,893.63
1198.872,904.07
1199.788,927.63
1200.703,895.60
1201.619,937.07
1202.534,896.63
1203.448,890.77
1204.364,916.73
1205.278,933.23
1206.192,903.67
1207.108,940.67
1208.022,945.10
1208.938,927.17
1209.851,899.07
1210.765,906.07
1211.680,905.87
1212.594,870.00
1213.507,912.47
1214.422,933.73
1215.335,942.40
1216.248,897.27
1217.163,925.80
1218.076,941.97
1218.990,914.23
1219.903,927.57
1220.816,922.40
1221.730,912.37
1222.642,925.73
1223.554,914.07
1224.469,951.23
1225.380,904.83
1226.292,940.70
1227.206,939.50
1228.118,942.13
1229.032,910.17
1229.943,920.83
1230.855,940.57
1231.768,918.60
1232.679,936.37
1233.590,926.97
1234.503,932.33
1235.414,948.57
1236.325,930.90
1237.238,945.07
1238.149,907.17
1239.059,956.57
1239.972,979.07
1240.882,981.33
1241.793,960.20
1242.705,972.90
1243.615,988.73
1244.525,975.63
1245.437,950.97
1246.347,939.80
1247.259,986.87
1248.168,965.13
1249.078,936.83
1249.989,958.17
1250.899,975.80
1251.808,946.33
1252.719,986.87
1253.628,953.10
1254.537,948.60
1255.448,950.77
1256.357,976.67
1257.266,948.20
1258.176,963.80
1259.085,978.70
1259.993,945.33
1260.904,976.70
1261.812,989.73
1262.720,964.60
1263.630,977.83
1264.538,978.20
1265.446,995.43
1266.356,1020.90
1267.263,960.50
1268.171,999.93
1269.080,952.77
1269.988,955.57
1270.895,985.80
1271.804,978.53
1272.711,988.13
1273.619,950.67
1274.527,975.60
1275.434,1005.47
1276.341,942.63
1277.248,1025.13
1278.156,930.63
1279.063,959.17
1279.969,960.00
1280.877,930.83
1281.783,992.07
1282.690,985.07
1283.598,967.53
1284.503,954.00
1285.409,962.60
1286.317,946.37
1287.223,984.53
1288.128,972.23
1289.036,977.53
1289.941,996.63
1290.846,952.77
1291.751,968.63
1292.658,950.47
1293.563,985.63
1294.468,958.70
1295.375,969.00
1296.280,945.23
1297.184,932.97
1298.091,934.80
1298.995,958.47
1299.900,951.97
1300.806,955.90
1301.710,945.70
1302.614,941.57
1303.518,930.40
1304.424,938.03
1305.327,959.57
1306.231,947.53
1307.137,881.10
1308.040,944.63
1308.943,940.97
1309.847,923.10
1310.752,920.20
1311.655,957.83
1312.558,920.07
1313.463,899.30
1314.366,864.33
1315.269,895.07
1316.171,895.33
1317.076,852.30
1317.978,876.33
1318.881,908.90
1319.785,925.60
1320.687,915.20
1321.589,909.97
1322.491,930.77
1323.395,899.83
1324.297,903.93
1325.198,896.07
1326.102,896.83
1327.004,868.30
1327.905,880.37
1328.806,902.63
1329.709,866.67
1330.611,859.33
1331.512,835.33
1332.413,868.57
1333.316,894.40
