RamanScope Measure Spectrum Data V3.72

<< MEASURE CONDITION >>
Exposure Type,Aver
Exposure Time [sec],15
Exposure Count,30
Measure Time,2023/07/07 12:29:35
Data Name,""
Data Comment,""
Rayleigh Wave[nm],532.0

<< SAMPLE SPECTRUM >>
Wave[dcm-1],No532
146.591,1124.07
147.626,1372.57
148.664,1582.57
149.699,1847.40
150.737,2072.17
151.772,2314.03
152.809,2613.53
153.846,2784.63
154.881,2999.23
155.918,3188.53
156.953,3313.53
157.989,3504.57
159.026,3613.37
160.060,3663.10
161.096,3769.77
162.130,3844.10
163.167,3927.07
164.200,4017.23
165.236,4083.60
166.272,4172.00
167.305,4260.03
168.341,4304.67
169.374,4356.63
170.409,4480.67
171.445,4537.50
172.477,4630.70
173.512,4662.03
174.545,4742.20
175.580,4731.17
176.614,4797.87
177.647,4778.03
178.681,4822.83
179.713,4751.97
180.747,4807.47
181.781,4773.77
182.813,4753.43
183.847,4760.90
184.878,4743.73
185.912,4718.67
186.945,4792.13
187.976,4795.70
189.010,4828.73
190.043,4850.83
191.073,4824.70
192.106,4917.13
193.137,4933.13
194.170,4941.17
195.202,5080.57
196.232,5018.40
197.265,5107.13
198.297,5104.33
199.327,5155.90
200.359,5209.67
201.388,5219.77
202.420,5268.90
203.452,5316.23
204.481,5370.73
205.512,5414.13
206.544,5458.50
207.573,5453.10
208.604,5514.70
209.635,5616.60
210.663,5629.50
211.694,5656.43
212.725,5707.33
213.753,5778.73
214.783,5784.97
215.813,5800.10
216.841,5767.03
217.871,5727.30
218.899,5728.23
219.929,5748.47
220.959,5688.13
221.986,5684.83
223.016,5600.53
224.045,5610.47
225.072,5613.00
226.101,5568.80
227.130,5538.57
228.157,5515.50
229.185,5517.63
230.214,5480.10
231.241,5450.77
232.269,5431.87
233.297,5432.20
234.323,5402.73
235.351,5381.60
236.379,5394.50
237.407,5369.90
238.433,5242.87
239.460,5312.57
240.488,5363.60
241.513,5301.63
242.540,5369.80
243.568,5383.23
244.592,5354.93
245.619,5388.33
246.646,5393.97
247.671,5380.03
248.697,5426.80
249.724,5427.17
250.748,5451.43
251.774,5476.60
252.801,5452.60
253.827,5521.67
254.850,5556.43
255.876,5564.90
256.902,5608.90
257.925,5603.43
258.951,5643.37
259.976,5688.37
260.999,5706.90
262.024,5732.13
263.049,5745.33
264.074,5770.10
265.097,5849.77
266.122,5881.80
267.146,5857.60
268.168,5925.17
269.193,5911.77
270.217,5883.60
271.241,5928.10
272.263,5930.73
273.287,5946.03
274.311,5897.30
275.332,5963.90
276.356,5944.53
277.379,5899.43
278.402,5893.43
279.424,5871.53
280.447,5876.27
281.470,5795.00
282.492,5780.63
283.513,5740.63
284.536,5726.83
285.558,5686.80
286.581,5654.07
287.601,5624.77
288.623,5581.87
289.645,5603.43
290.665,5534.67
291.687,5499.00
292.709,5459.70
293.730,5452.23
294.750,5408.97
295.771,5385.70
296.792,5377.47
297.813,5363.57
298.832,5297.27
299.853,5276.03
300.874,5323.27
301.895,5318.80
302.913,5257.93
303.934,5212.57
304.954,5188.80
305.975,5428.40
306.993,5209.10
308.013,5153.03
309.033,5176.57
310.052,5132.00
311.072,5098.50
312.090,5156.43
313.109,5161.70
314.129,5132.50
315.148,5133.80
316.165,5152.63
317.184,5112.57
318.203,5101.77
319.222,5094.00
320.238,5099.93
321.257,5070.47
322.275,5106.87
323.294,5045.77
324.312,5031.47
325.328,5048.57
326.346,5080.57
327.364,5095.07
328.382,5056.43
329.397,5044.27
330.415,4983.53
331.432,4989.03
332.450,5003.30
333.467,5048.63
334.482,5001.40
335.499,4985.43
336.516,5024.93
337.533,5020.77
338.547,4987.80
339.564,5004.50
340.580,4982.17
341.597,4970.23
342.613,4967.40
343.627,4981.27
344.643,4903.77
345.659,4949.47
346.675,4906.80
347.690,4936.70
348.704,4911.97
349.719,4900.93
350.735,4920.40
351.750,4889.40
352.765,4936.80
353.778,4902.77
354.793,4938.07
355.808,4902.20
356.822,4899.00
357.837,4893.50
358.851,4915.63
359.864,4918.80
360.878,4885.53
361.892,4910.43
362.906,4905.50
363.920,4960.53
364.932,4935.87
365.945,4899.87
366.959,4889.97
367.972,4944.20
368.986,4929.67
369.999,4906.60
371.010,4916.07
372.023,4924.00
373.036,4948.30
374.049,4933.43
375.061,4953.80
376.072,4928.90
377.084,4890.77
378.097,4919.27
379.109,4886.67
380.121,4874.77
381.133,4853.00
382.143,4882.67
383.155,4848.60
384.166,4860.77
385.178,4833.60
386.189,4849.33
387.201,4800.00
388.212,4776.77
389.221,4781.07
390.232,4781.80
391.243,4717.43
392.254,4709.43
393.264,4669.00
394.275,4708.77
395.283,4690.70
396.294,4629.07
397.304,4641.90
398.314,4617.87
399.324,4602.03
400.334,4635.57
401.344,4566.37
402.351,4544.40
403.361,4536.10
404.370,4509.57
405.380,4501.43
406.389,4463.90
407.398,4479.30
408.407,4475.37
409.414,4451.80
410.423,4471.23
411.431,4422.50
412.440,4330.87
413.448,4317.40
414.457,4321.90
415.465,4352.80
416.471,4321.50
417.479,4280.20
418.487,4251.20
419.495,4282.47
420.503,4264.83
421.510,4290.00
422.518,4231.43
423.525,4200.50
424.530,4225.57
425.537,4234.27
426.544,4207.07
427.551,4176.17
428.558,4161.10
429.565,4203.17
430.571,4197.87
431.578,4141.40
432.582,4168.27
433.588,4152.30
434.595,4093.07
435.601,4101.57
436.607,4100.87
437.612,4088.80
438.618,4079.10
439.624,4049.37
440.627,4093.67
441.633,4056.40
442.638,4064.43
443.643,4038.87
444.648,4002.20
445.653,4009.00
446.658,4021.47
447.663,4036.77
448.667,3987.70
449.672,3985.70
450.674,4042.50
451.678,4010.70
452.682,3979.47
453.687,3975.27
454.690,3967.67
455.694,3986.20
456.698,4012.80
457.702,3948.13
458.705,3955.57
459.709,3927.27
460.710,3941.17
461.713,4008.97
462.716,3958.93
463.719,3876.87
464.722,3952.07
465.725,3936.13
466.727,3974.27
467.730,3903.23
468.732,3904.00
469.735,3933.20
470.737,3928.03
471.737,3912.20
472.739,3903.83
473.741,3924.13
474.742,3889.10
475.744,3898.00
476.746,3929.83
477.747,3936.03
478.748,3856.27
479.750,3855.97
480.751,3862.50
481.752,3898.00
482.753,3873.57
483.751,3850.33
484.752,3840.33
485.753,3821.40
486.753,3819.70
487.753,3887.53
488.754,3793.13
489.754,3834.50
490.754,3788.80
491.754,3812.00
492.754,3809.27
493.753,3744.13
494.753,3807.27
495.752,3769.43
496.752,3786.80
497.749,3798.17
498.748,3743.63
499.747,3727.70
500.746,3730.37
501.745,3759.20
502.744,3755.87
503.742,3764.23
504.741,3722.23
505.739,3723.83
506.737,3691.37
507.735,3720.73
508.734,3691.03
509.732,3720.97
510.729,3695.67
511.727,3709.53
512.725,3726.10
513.720,3718.00
514.718,3689.70
515.715,3675.77
516.712,3668.47
517.709,3693.57
518.706,3725.03
519.703,3659.27
520.700,3661.67
521.696,3722.83
522.693,3683.83
523.689,3730.83
524.686,3697.80
525.682,3703.20
526.678,3701.10
527.674,3718.80
528.670,3672.57
529.666,3713.93
530.661,3710.83
531.657,3661.13
532.652,3703.27
533.648,3700.93
534.641,3707.90
535.636,3716.87
536.631,3704.67
537.626,3696.67
538.621,3705.20
539.616,3693.57
540.610,3675.37
541.605,3686.47
542.599,3649.27
543.593,3679.20
544.587,3669.73
545.581,3640.67
546.575,3646.70
547.569,3657.03
548.563,3623.97
549.557,3606.37
550.550,3648.50
551.543,3588.60
552.537,3661.77
553.530,3569.27
554.523,3608.93
555.516,3577.27
556.509,3592.67
557.502,3534.20
558.494,3527.47
559.487,3575.10
560.479,3545.67
561.472,3548.73
562.464,3529.77
563.456,3522.60
564.448,3505.23
565.440,3544.53
566.432,3472.73
567.423,3444.57
568.415,3489.40
569.404,3455.80
570.396,3471.50
571.387,3463.50
572.378,3391.37
573.369,3345.93
574.360,3409.47
575.351,3414.87
576.341,3449.20
577.332,3370.23
578.323,3369.47
579.313,3314.87
580.303,3356.30
581.293,3343.87
582.283,3324.13
583.273,3282.37
584.263,3309.63
585.253,3270.93
586.243,3298.77
587.232,3288.33
588.222,3240.40
589.211,3240.47
590.200,3225.60
591.189,3243.33
592.178,3227.30
593.167,3200.20
594.156,3198.60
595.145,3169.07
596.133,3174.77
597.122,3144.50
598.110,3142.20
599.098,3145.17
600.086,3052.03
601.074,3086.53
602.062,3094.53
603.050,3068.97
604.038,3070.40
605.025,3060.50
606.013,3049.57
607.000,3052.60
607.987,2979.27
608.975,2992.27
609.962,2986.27
610.949,3004.83
611.936,3022.47
612.922,2988.73
613.909,2964.57
614.895,2950.47
615.882,2919.47
616.868,2966.53
617.854,2968.93
618.841,2966.07
619.826,2925.00
620.812,2862.43
621.798,2892.57
622.784,2927.33
623.769,2917.40
624.755,2875.73
625.740,2877.27
626.725,2885.53
627.711,2860.03
628.698,2869.67
629.683,2850.97
630.667,2815.07
631.652,2863.20
632.637,2809.17
633.621,2839.27
634.606,2838.80
635.590,2793.73
636.574,2787.13
637.558,2800.60
638.542,2805.37
639.526,2791.93
640.510,2759.47
641.493,2762.90
642.477,2785.53
643.460,2773.93
644.444,2747.17
645.427,2749.17
646.410,2770.57
647.393,2748.23
648.376,2755.57
649.359,2723.23
650.341,2706.97
651.324,2683.43
652.307,2688.27
653.289,2706.30
654.271,2729.93
655.253,2666.27
656.235,2690.83
657.217,2696.90
658.199,2646.27
659.181,2673.03
660.163,2666.77
661.144,2619.00
662.126,2623.37
663.107,2607.73
664.088,2624.27
665.069,2591.17
666.050,2569.37
667.033,2545.53
668.014,2555.43
668.995,2558.87
669.975,2508.43
670.956,2561.73
671.936,2532.50
672.916,2515.87
673.896,2528.90
674.876,2579.00
675.856,2494.90
676.836,2507.37
677.816,2511.37
678.795,2495.03
679.775,2462.30
680.754,2488.20
681.734,2495.93
682.713,2438.77
683.692,2467.63
684.671,2470.77
685.650,2424.43
686.629,2437.60
687.607,2401.97
688.586,2382.70
689.564,2443.77
690.543,2438.80
691.523,2428.50
692.501,2387.93
693.479,2390.27
694.457,2376.20
695.435,2361.93
696.413,2386.90
697.390,2380.67
698.368,2326.57
699.345,2333.43
700.322,2334.23
701.300,2324.87
702.277,2349.27
703.254,2353.53
704.231,2296.43
705.207,2335.00
706.184,2341.40
707.161,2322.20
708.137,2330.17
709.113,2230.77
710.090,2302.30
711.068,2325.17
712.044,2298.73
713.020,2319.80
713.996,2297.73
714.971,2284.47
715.947,2267.03
716.922,2283.80
717.898,2283.13
718.873,2229.77
719.848,2256.53
720.823,2265.03
721.798,2230.77
722.773,2221.70
723.748,2229.67
724.723,2232.33
725.697,2223.17
726.672,2235.60
727.646,2242.73
728.622,2234.73
729.596,2187.93
730.570,2229.53
731.544,2229.93
732.518,2200.63
733.492,2237.97
734.466,2206.10
735.439,2189.67
736.413,2181.83
737.386,2195.37
738.359,2164.93
739.332,2205.57
740.305,2178.73
741.278,2199.87
742.251,2150.70
743.224,2178.97
744.196,2170.53
745.171,2169.13
746.143,2179.33
747.115,2155.17
748.087,2197.53
749.059,2153.00
750.031,2161.13
751.003,2078.80
751.975,2126.07
752.947,2169.40
753.918,2147.60
754.890,2149.80
755.861,2118.47
756.832,2097.57
757.803,2174.37
758.774,2159.57
759.747,2122.63
760.718,2150.00
761.689,2154.27
762.659,2126.17
763.630,2087.17
764.600,2091.67
765.570,2110.23
766.540,2081.53
767.510,2059.63
768.480,2070.77
769.450,2118.93
770.420,2069.70
771.390,2048.40
772.359,2062.33
773.329,2077.03
774.300,2056.33
775.269,2022.67
776.238,1988.77
777.207,2023.47
778.176,1982.07
779.145,1990.97
780.114,1974.53
781.083,1985.83
782.051,1968.07
783.019,1958.37
783.988,1916.20
784.956,1970.47
785.924,1942.90
786.894,1954.03
787.862,1905.77
788.830,1968.43
789.797,1940.53
790.765,1922.90
791.732,1919.53
792.700,1935.63
793.667,1884.50
794.634,1920.30
795.601,1914.03
796.568,1876.30
797.535,1889.73
798.502,1887.97
799.468,1880.23
800.437,1909.03
801.403,1872.30
802.370,1887.23
803.336,1836.07
804.302,1850.23
805.268,1854.07
806.234,1876.67
807.200,1829.73
808.166,1836.33
809.131,1857.13
810.097,1811.17
811.062,1815.30
812.027,1829.30
812.994,1812.73
813.960,1835.43
814.925,1817.87
815.889,1797.93
816.854,1849.33
817.819,1802.23
818.783,1792.57
819.748,1804.23
820.712,1837.27
821.677,1833.30
822.641,1787.93
823.605,1859.77
824.571,1802.67
825.534,1826.30
826.498,1840.87
827.462,1831.87
828.425,1826.13
829.389,1793.53
830.352,1818.93
831.315,1795.60
832.279,1829.87
833.242,1805.47
834.204,1808.77
835.167,1839.50
836.132,1812.70
837.095,1816.50
838.057,1785.93
839.020,1831.77
839.982,1812.90
840.944,1833.47
841.906,1860.93
842.868,1828.00
843.830,1812.10
844.792,1828.87
845.753,1835.70
846.715,1829.50
847.679,1844.30
848.640,1853.57
849.601,1841.47
850.562,1847.03
851.523,1847.17
852.484,1869.53
853.445,1845.57
854.406,1830.43
855.367,1878.33
856.327,1817.57
857.288,1864.83
858.248,1897.77
859.210,1834.80
860.170,1845.27
861.130,1875.67
862.090,1825.00
863.050,1884.10
864.010,1863.77
864.969,1899.73
865.929,1897.43
866.888,1863.57
867.848,1889.90
868.807,1892.17
869.766,1881.00
870.727,1893.73
871.686,1859.93
872.645,1915.23
873.604,1914.00
874.562,1910.97
875.521,1919.47
876.479,1879.73
877.437,1940.67
878.396,1922.83
879.354,1917.40
880.312,1923.17
881.270,1908.87
882.229,1915.23
883.187,1924.83
884.145,1935.53
885.102,1909.23
886.059,1906.10
887.017,1941.77
887.974,1911.33
888.931,1980.70
889.888,1968.80
890.845,1953.43
891.802,1989.07
892.758,1997.23
893.717,1968.43
894.673,1965.73
895.630,2008.17
896.586,1989.40
897.542,1984.00
898.498,1993.27
899.454,1982.40
900.410,2006.20
901.366,1997.33
902.321,1963.83
903.277,1993.07
904.232,2020.63
905.189,2039.30
906.145,1972.10
907.100,2050.00
908.055,2017.83
909.010,2033.20
909.965,2066.63
910.919,2031.13
911.874,2020.67
912.828,2038.27
913.783,2054.93
914.737,2040.63
915.693,2097.27
916.648,2072.83
917.602,2067.13
918.555,2081.73
919.509,2072.07
920.463,2079.40
921.417,2108.87
922.370,2044.00
923.324,2070.40
924.277,2085.40
925.230,2088.20
926.183,2111.23
927.138,2079.80
928.091,2072.97
929.044,2085.33
929.996,2104.23
930.949,2121.57
931.902,2091.77
932.854,2119.63
933.806,2145.13
934.758,2109.77
935.711,2181.10
936.663,2107.67
937.614,2144.50
938.568,2101.00
939.520,2106.73
940.471,2128.27
941.423,2169.33
942.374,2105.80
943.326,2118.20
944.277,2123.93
945.228,2127.13
946.179,2141.33
947.130,2116.87
948.080,2164.60
949.031,2107.00
949.984,2086.23
950.934,2117.73
951.884,2126.83
952.835,2163.97
953.785,2086.50
954.735,2093.47
955.685,2097.33
956.635,2112.07
957.585,2113.20
958.534,2074.37
959.484,2096.23
960.433,2054.53
961.383,2064.73
962.334,2086.63
963.283,2017.73
964.232,2089.13
965.181,2038.23
966.130,2076.67
967.079,2029.80
968.027,2052.03
968.976,2016.73
969.924,2029.80
970.873,2020.50
971.821,2032.33
972.769,1986.13
973.719,2031.60
974.667,2004.33
975.615,2010.10
976.562,1993.77
977.510,2000.70
978.458,1998.77
979.405,2006.10
980.352,1997.03
981.300,2004.17
982.247,2005.73
983.194,1972.20
984.141,1983.10
985.088,1970.93
986.036,1906.83
986.983,1931.03
987.930,1909.73
988.876,1982.07
989.822,1938.03
990.769,1964.07
991.715,1926.57
992.661,1908.17
993.607,1895.80
994.553,1922.27
995.498,1938.57
996.444,1877.53
997.389,1895.47
998.337,1901.37
999.282,1906.30
1000.227,1914.37
1001.173,1863.27
1002.118,1860.00
1003.062,1879.87
1004.007,1895.97
1004.952,1880.83
1005.897,1869.20
1006.841,1849.17
1007.786,1845.13
1008.730,1841.53
1009.674,1841.13
1010.618,1830.17
1011.564,1833.87
1012.508,1824.47
1013.452,1841.80
1014.396,1851.80
1015.339,1816.57
1016.283,1824.23
1017.226,1790.93
1018.170,1725.70
1019.113,1803.93
1020.056,1805.33
1020.999,1800.17
1021.942,1756.43
1022.885,1796.10
1023.828,1744.80
1024.770,1765.30
1025.715,1778.57
1026.657,1759.47
1027.600,1778.80
1028.542,1771.93
1029.484,1771.33
1030.426,1748.50
1031.368,1748.60
1032.310,1731.93
1033.251,1745.23
1034.193,1762.43
1035.135,1759.93
1036.076,1776.50
1037.017,1767.23
1037.959,1777.93
1038.900,1737.93
1039.843,1728.87
1040.784,1724.27
1041.725,1755.90
1042.665,1749.13
1043.606,1756.13
1044.547,1721.73
1045.487,1746.83
1046.427,1739.30
1047.368,1713.47
1048.308,1731.93
1049.248,1730.33
1050.188,1741.60
1051.128,1703.53
1052.067,1729.80
1053.007,1737.07
1053.947,1697.37
1054.886,1688.80
1055.827,1708.73
1056.766,1720.53
1057.706,1716.77
1058.645,1734.87
1059.584,1736.50
1060.522,1715.60
1061.461,1722.60
1062.400,1732.37
1063.338,1748.20
1064.277,1687.40
1065.215,1702.07
1066.154,1712.73
1067.092,1722.07
1068.030,1719.40
1068.968,1743.97
1069.906,1739.43
1070.843,1707.00
1071.781,1730.23
1072.720,1709.50
1073.658,1720.73
1074.595,1740.23
1075.533,1723.23
1076.470,1703.53
1077.407,1751.13
1078.344,1715.23
1079.281,1698.73
1080.217,1727.27
1081.154,1716.87
1082.091,1717.20
1083.027,1718.83
1083.964,1742.20
1084.900,1708.33
1085.836,1707.47
1086.772,1672.60
1087.708,1679.53
1088.644,1656.33
1089.580,1688.67
1090.515,1702.00
1091.451,1667.87
1092.388,1693.70
1093.324,1671.23
1094.259,1693.33
1095.194,1688.00
1096.129,1713.93
1097.064,1679.20
1097.999,1658.77
1098.934,1661.17
1099.869,1653.80
1100.803,1644.70
1101.738,1650.27
1102.672,1659.13
1103.607,1623.83
1104.541,1632.40
1105.475,1646.00
1106.409,1640.53
1107.343,1614.40
1108.277,1615.27
1109.210,1560.20
1110.144,1589.13
1111.078,1611.87
1112.011,1596.73
1112.944,1583.87
1113.878,1592.53
1114.811,1569.87
1115.744,1552.23
1116.678,1563.03
1117.611,1567.00
1118.544,1586.50
1119.477,1563.77
1120.409,1554.00
1121.342,1556.00
1122.274,1529.07
1123.206,1536.20
1124.138,1528.37
1125.070,1514.87
1126.002,1489.93
1126.934,1514.73
1127.866,1479.27
1128.798,1523.13
1129.729,1486.40
1130.661,1471.87
1131.592,1450.67
1132.523,1503.07
1133.454,1448.27
1134.385,1448.40
1135.317,1436.53
1136.247,1459.53
1137.178,1476.93
1138.109,1461.00
1139.039,1451.17
1139.970,1447.63
1140.900,1453.33
1141.831,1460.67
1142.761,1455.53
1143.691,1465.13
1144.621,1408.20
1145.551,1442.73
1146.480,1414.67
1147.410,1453.83
1148.340,1384.73
1149.269,1400.87
1150.199,1443.50
1151.128,1384.60
1152.057,1407.87
1152.979,1400.70
1153.898,1379.93
1154.819,1424.80
1155.739,1361.30
1156.658,1422.13
1157.579,1389.47
1158.498,1402.10
1159.419,1392.33
1160.338,1395.13
1161.256,1414.57
1162.177,1378.63
1163.095,1378.70
1164.016,1403.63
1164.934,1354.77
1165.852,1338.97
1166.772,1343.03
1167.690,1338.70
1168.610,1370.03
1169.528,1367.57
1170.446,1362.87
1171.365,1343.70
1172.283,1357.70
1173.202,1318.23
1174.120,1299.50
1175.037,1373.43
1175.956,1326.33
1176.873,1332.37
1177.792,1342.77
1178.709,1299.30
1179.626,1367.77
1180.544,1365.50
1181.461,1301.33
1182.379,1316.57
1183.296,1306.37
1184.212,1297.03
1185.130,1319.20
1186.046,1294.80
1186.962,1338.47
1187.880,1296.43
1188.796,1336.10
1189.714,1314.37
1190.629,1304.33
1191.545,1356.47
1192.462,1310.93
1193.378,1309.87
1194.295,1327.50
1195.210,1311.50
1196.125,1335.50
1197.042,1306.13
1197.957,1286.33
1198.872,1287.57
1199.788,1301.97
1200.703,1308.37
1201.619,1307.67
1202.534,1289.47
1203.448,1275.73
1204.364,1300.93
1205.278,1301.17
1206.192,1320.30
1207.108,1334.03
1208.022,1321.97
1208.938,1303.97
1209.851,1269.23
1210.765,1330.80
1211.680,1290.00
1212.594,1266.00
1213.507,1282.93
1214.422,1276.00
1215.335,1293.93
1216.248,1279.20
1217.163,1319.17
1218.076,1276.63
1218.990,1261.43
1219.903,1281.43
1220.816,1308.77
1221.730,1308.00
1222.642,1317.60
1223.554,1283.80
1224.469,1275.40
1225.380,1313.00
1226.292,1269.00
1227.206,1269.40
1228.118,1274.63
1229.032,1288.63
1229.943,1287.70
1230.855,1279.00
1231.768,1292.13
1232.679,1262.80
1233.590,1325.73
1234.503,1292.53
1235.414,1253.73
1236.325,1311.00
1237.238,1308.47
1238.149,1311.33
1239.059,1282.80
1239.972,1283.57
1240.882,1261.90
1241.793,1286.10
1242.705,1289.00
1243.615,1284.40
1244.525,1275.57
1245.437,1302.20
1246.347,1313.27
1247.259,1302.43
1248.168,1279.67
1249.078,1275.07
1249.989,1262.30
1250.899,1278.50
1251.808,1321.23
1252.719,1297.60
1253.628,1296.30
1254.537,1266.10
1255.448,1256.40
1256.357,1327.50
1257.266,1318.90
1258.176,1271.27
1259.085,1266.63
1259.993,1276.83
1260.904,1298.20
1261.812,1276.10
1262.720,1262.93
1263.630,1308.57
1264.538,1266.07
1265.446,1297.67
1266.356,1290.23
1267.263,1264.03
1268.171,1303.13
1269.080,1306.10
1269.988,1296.00
1270.895,1285.33
1271.804,1312.50
1272.711,1308.50
1273.619,1272.83
1274.527,1316.40
1275.434,1290.57
1276.341,1288.87
1277.248,1269.50
1278.156,1263.97
1279.063,1291.37
1279.969,1283.07
1280.877,1305.23
1281.783,1272.67
1282.690,1280.63
1283.598,1262.83
1284.503,1271.83
1285.409,1278.57
1286.317,1244.33
1287.223,1283.77
1288.128,1274.50
1289.036,1283.30
1289.941,1281.47
1290.846,1253.97
1291.751,1243.13
1292.658,1294.87
1293.563,1248.90
1294.468,1269.23
1295.375,1303.43
1296.280,1218.93
1297.184,1271.83
1298.091,1275.80
1298.995,1245.47
1299.900,1287.13
1300.806,1261.23
1301.710,1238.50
1302.614,1232.80
1303.518,1230.80
1304.424,1261.30
1305.327,1232.43
1306.231,1251.50
1307.137,1245.00
1308.040,1282.07
1308.943,1231.83
1309.847,1237.83
1310.752,1265.37
1311.655,1248.80
1312.558,1212.77
1313.463,1226.00
1314.366,1217.13
1315.269,1238.90
1316.171,1199.83
1317.076,1218.63
1317.978,1188.47
1318.881,1188.10
1319.785,1196.27
1320.687,1180.67
1321.589,1211.30
1322.491,1203.60
