RamanScope Measure Spectrum Data V3.72

<< MEASURE CONDITION >>
Exposure Type,Aver
Exposure Time [sec],15
Exposure Count,4
Measure Time,2023/07/15 15:12:06
Data Name,""
Data Comment,""
Rayleigh Wave[nm],532.0

<< SAMPLE SPECTRUM >>
Wave[dcm-1],No130
146.591,235.00
147.626,288.25
148.664,340.25
149.699,326.75
150.737,404.00
151.772,452.25
152.809,483.00
153.846,509.00
154.881,565.00
155.918,585.50
156.953,583.50
157.989,609.25
159.026,708.25
160.060,734.25
161.096,688.75
162.130,722.50
163.167,737.00
164.200,720.75
165.236,800.75
166.272,778.00
167.305,766.75
168.341,802.75
169.374,796.00
170.409,844.00
171.445,871.00
172.477,864.00
173.512,872.25
174.545,875.75
175.580,935.75
176.614,906.25
177.647,935.50
178.681,958.25
179.713,946.75
180.747,939.00
181.781,940.25
182.813,909.75
183.847,904.25
184.878,929.50
185.912,931.00
186.945,940.00
187.976,902.00
189.010,880.00
190.043,901.75
191.073,924.25
192.106,949.50
193.137,976.50
194.170,1009.00
195.202,1002.00
196.232,988.00
197.265,1012.00
198.297,1072.50
199.327,1071.75
200.359,1094.75
201.388,1169.75
202.420,1186.00
203.452,1227.25
204.481,1239.00
205.512,1300.25
206.544,1391.75
207.573,1489.25
208.604,1563.50
209.635,1589.50
210.663,1729.25
211.694,1854.50
212.725,1939.00
213.753,2099.75
214.783,2277.50
215.813,2363.25
216.841,2527.00
217.871,2587.50
218.899,2672.25
219.929,2793.00
220.959,2757.00
221.986,2737.75
223.016,2661.00
224.045,2604.50
225.072,2481.00
226.101,2352.75
227.130,2220.25
228.157,2097.00
229.185,1940.50
230.214,1862.75
231.241,1703.75
232.269,1664.75
233.297,1589.50
234.323,1539.25
235.351,1489.25
236.379,1478.75
237.407,1399.25
238.433,1405.25
239.460,1365.50
240.488,1361.25
241.513,1375.00
242.540,1362.50
243.568,1355.25
244.592,1312.75
245.619,1321.50
246.646,1302.25
247.671,1383.00
248.697,1367.50
249.724,1335.75
250.748,1316.00
251.774,1368.25
252.801,1355.50
253.827,1369.00
254.850,1405.75
255.876,1370.75
256.902,1412.25
257.925,1421.50
258.951,1454.25
259.976,1461.50
260.999,1462.75
262.024,1502.50
263.049,1558.25
264.074,1612.50
265.097,1617.00
266.122,1624.00
267.146,1712.50
268.168,1703.50
269.193,1799.75
270.217,1845.75
271.241,1870.00
272.263,1927.50
273.287,1927.75
274.311,1954.50
275.332,2024.25
276.356,2028.75
277.379,2034.25
278.402,2101.25
279.424,2042.25
280.447,2079.00
281.470,2072.00
282.492,2070.50
283.513,2058.00
284.536,2086.75
285.558,2033.00
286.581,1963.25
287.601,1944.25
288.623,1906.25
289.645,1860.75
290.665,1818.75
291.687,1791.25
292.709,1747.25
293.730,1666.75
294.750,1627.00
295.771,1618.00
296.792,1534.25
297.813,1528.00
298.832,1459.25
299.853,1360.25
300.874,1373.75
301.895,1337.00
302.913,1260.50
303.934,1235.50
304.954,1233.75
305.975,1151.00
306.993,1102.50
308.013,1130.75
309.033,1108.00
310.052,1081.75
311.072,1099.75
312.090,1051.75
313.109,1025.00
314.129,1020.50
315.148,1022.50
316.165,1008.25
317.184,1003.25
318.203,936.25
319.222,950.50
320.238,969.75
321.257,931.75
322.275,884.75
323.294,932.75
324.312,915.50
325.328,887.00
326.346,898.00
327.364,836.50
328.382,874.50
329.397,853.50
330.415,915.75
331.432,856.50
332.450,864.50
333.467,876.00
334.482,862.50
335.499,846.75
336.516,831.75
337.533,878.75
338.547,844.75
339.564,848.25
340.580,862.75
341.597,827.00
342.613,837.00
343.627,824.50
344.643,829.00
345.659,867.25
346.675,848.25
347.690,834.25
348.704,816.50
349.719,837.75
350.735,839.25
351.750,858.50
352.765,841.75
353.778,813.75
354.793,813.00
355.808,856.50
356.822,873.75
357.837,822.00
358.851,838.50
359.864,864.25
360.878,884.75
361.892,814.75
362.906,888.50
363.920,863.00
364.932,917.00
365.945,927.25
366.959,916.00
367.972,897.50
368.986,930.75
369.999,906.50
371.010,883.75
372.023,908.00
373.036,895.25
374.049,914.75
375.061,916.25
376.072,942.50
377.084,973.25
378.097,971.50
379.109,976.75
380.121,969.75
381.133,981.00
382.143,979.00
383.155,980.25
384.166,1018.50
385.178,1016.25
386.189,1021.50
387.201,1034.25
388.212,1008.25
389.221,1058.50
390.232,1007.75
391.243,980.50
392.254,1009.50
393.264,1064.75
394.275,1038.75
395.283,977.00
396.294,1074.50
397.304,1038.25
398.314,1095.25
399.324,1037.75
400.334,990.50
401.344,1001.25
402.351,985.00
403.361,1002.00
404.370,980.00
405.380,965.25
406.389,904.00
407.398,921.50
408.407,971.50
409.414,945.50
410.423,922.75
411.431,859.50
412.440,889.75
413.448,865.00
414.457,823.50
415.465,805.00
416.471,772.50
417.479,820.00
418.487,795.75
419.495,823.25
420.503,826.50
421.510,799.25
422.518,764.50
423.525,776.75
424.530,809.00
425.537,800.50
426.544,802.00
427.551,708.50
428.558,768.00
429.565,736.50
430.571,738.25
431.578,757.50
432.582,748.50
433.588,722.25
434.595,761.50
435.601,726.25
436.607,723.75
437.612,766.75
438.618,744.75
439.624,706.25
440.627,684.75
441.633,712.25
442.638,746.75
443.643,743.00
444.648,741.00
445.653,690.75
446.658,696.75
447.663,714.50
448.667,694.50
449.672,765.25
450.674,716.00
451.678,724.00
452.682,700.25
453.687,683.50
454.690,746.50
455.694,738.50
456.698,738.50
457.702,713.00
458.705,693.25
459.709,765.00
460.710,703.75
461.713,769.50
462.716,761.75
463.719,766.00
464.722,744.25
465.725,754.00
466.727,759.25
467.730,728.00
468.732,792.00
469.735,789.25
470.737,758.75
471.737,779.75
472.739,738.25
473.741,774.75
474.742,761.00
475.744,774.75
476.746,777.25
477.747,792.25
478.748,740.75
479.750,754.25
480.751,767.75
481.752,764.75
482.753,828.75
483.751,738.00
484.752,745.75
485.753,766.00
486.753,797.00
487.753,801.00
488.754,773.00
489.754,743.75
490.754,797.00
491.754,811.25
492.754,765.75
493.753,782.00
494.753,778.00
495.752,756.00
496.752,763.75
497.749,773.25
498.748,789.75
499.747,799.25
500.746,710.50
501.745,757.00
502.744,740.00
503.742,800.25
504.741,736.75
505.739,742.25
506.737,790.50
507.735,754.50
508.734,729.25
509.732,713.25
510.729,726.00
511.727,750.25
512.725,737.75
513.720,747.00
514.718,744.00
515.715,712.75
516.712,768.75
517.709,698.25
518.706,701.75
519.703,719.25
520.700,715.25
521.696,752.00
522.693,737.00
523.689,706.50
524.686,725.25
525.682,724.00
526.678,689.50
527.674,708.75
528.670,778.75
529.666,708.75
530.661,740.00
531.657,1263.75
532.652,725.25
533.648,700.75
534.641,708.00
535.636,766.75
536.631,700.00
537.626,716.75
538.621,697.25
539.616,702.50
540.610,702.00
541.605,713.00
542.599,706.25
543.593,724.75
544.587,644.75
545.581,752.50
546.575,724.25
547.569,720.75
548.563,738.00
549.557,700.00
550.550,684.75
551.543,701.00
552.537,750.25
553.530,732.50
554.523,722.25
555.516,701.75
556.509,710.25
557.502,785.00
558.494,753.50
559.487,750.75
560.479,767.75
561.472,761.00
562.464,768.50
563.456,754.00
564.448,815.00
565.440,780.00
566.432,788.00
567.423,788.75
568.415,745.25
569.404,779.75
570.396,767.25
571.387,804.50
572.378,804.00
573.369,829.25
574.360,840.50
575.351,839.25
576.341,813.25
577.332,813.25
578.323,787.75
579.313,858.50
580.303,837.50
581.293,810.00
582.283,852.00
583.273,821.00
584.263,825.25
585.253,880.75
586.243,846.50
587.232,817.75
588.222,854.25
589.211,839.50
590.200,867.75
591.189,802.25
592.178,829.25
593.167,877.00
594.156,898.00
595.145,804.00
596.133,885.50
597.122,833.00
598.110,852.25
599.098,870.00
600.086,790.25
601.074,854.50
602.062,814.75
603.050,805.00
604.038,768.50
605.025,779.25
606.013,813.50
607.000,802.50
607.987,760.75
608.975,790.25
609.962,772.25
610.949,767.75
611.936,743.50
612.922,765.50
613.909,728.25
614.895,760.75
615.882,744.25
616.868,747.00
617.854,716.25
618.841,693.75
619.826,763.00
620.812,685.75
621.798,669.25
622.784,706.25
623.769,706.25
624.755,680.50
625.740,659.75
626.725,684.00
627.711,707.50
628.698,653.75
629.683,711.75
630.667,650.00
631.652,675.25
632.637,660.00
633.621,660.75
634.606,669.00
635.590,688.75
636.574,656.75
637.558,718.50
638.542,659.50
639.526,686.50
640.510,634.25
641.493,658.50
642.477,686.25
643.460,663.50
644.444,664.50
645.427,650.00
646.410,663.25
647.393,594.75
648.376,647.75
649.359,629.75
650.341,642.50
651.324,633.75
652.307,597.25
653.289,607.75
654.271,625.00
655.253,634.25
656.235,606.00
657.217,661.00
658.199,624.00
659.181,591.50
660.163,604.25
661.144,638.25
662.126,595.50
663.107,589.75
664.088,649.25
665.069,600.75
666.050,605.25
667.033,605.50
668.014,561.75
668.995,576.25
669.975,576.50
670.956,599.50
671.936,580.50
672.916,572.25
673.896,600.25
674.876,606.00
675.856,553.50
676.836,595.00
677.816,565.25
678.795,568.00
679.775,555.25
680.754,590.75
681.734,585.50
682.713,551.75
683.692,573.75
684.671,569.25
685.650,569.50
686.629,563.75
687.607,565.00
688.586,549.75
689.564,532.00
690.543,543.75
691.523,539.75
692.501,531.25
693.479,561.50
694.457,541.25
695.435,561.75
696.413,526.00
697.390,559.50
698.368,511.50
699.345,509.00
700.322,549.00
701.300,525.50
702.277,507.75
703.254,535.50
704.231,526.25
705.207,531.00
706.184,501.50
707.161,545.50
708.137,533.75
709.113,558.75
710.090,519.00
711.068,487.50
712.044,482.75
713.020,511.75
713.996,525.00
714.971,553.50
715.947,543.50
716.922,559.75
717.898,521.00
718.873,511.25
719.848,517.50
720.823,559.00
721.798,525.25
722.773,498.00
723.748,503.00
724.723,531.25
725.697,511.50
726.672,500.75
727.646,516.75
728.622,501.75
729.596,494.75
730.570,519.25
731.544,518.25
732.518,492.00
733.492,494.00
734.466,555.25
735.439,486.00
736.413,512.75
737.386,507.00
738.359,484.50
739.332,525.25
740.305,484.50
741.278,509.75
742.251,563.25
743.224,475.75
744.196,502.25
745.171,468.75
746.143,550.00
747.115,521.75
748.087,478.25
749.059,439.25
750.031,490.25
751.003,568.50
751.975,534.00
752.947,527.00
753.918,477.25
754.890,466.25
755.861,512.75
756.832,470.25
757.803,510.25
758.774,473.00
759.747,494.25
760.718,534.00
761.689,477.00
762.659,463.25
763.630,506.25
764.600,499.50
765.570,508.00
766.540,514.50
767.510,522.25
768.480,503.75
769.450,496.75
770.420,490.75
771.390,460.00
772.359,498.00
773.329,472.00
774.300,493.25
775.269,496.50
776.238,505.50
777.207,496.75
778.176,465.25
779.145,476.75
780.114,488.50
781.083,439.50
782.051,491.50
783.019,508.50
783.988,482.75
784.956,493.50
785.924,461.50
786.894,501.50
787.862,465.75
788.830,479.00
789.797,467.50
790.765,457.25
791.732,475.25
792.700,506.25
793.667,447.50
794.634,495.00
795.601,425.25
796.568,510.00
797.535,473.00
798.502,478.50
799.468,474.50
800.437,438.00
801.403,454.25
802.370,499.25
803.336,459.75
804.302,476.75
805.268,463.75
806.234,441.25
807.200,454.25
808.166,496.00
809.131,487.75
810.097,465.25
811.062,446.00
812.027,476.00
812.994,461.75
813.960,421.00
814.925,475.75
815.889,457.50
816.854,504.75
817.819,451.75
818.783,445.50
819.748,466.00
820.712,413.75
821.677,461.00
822.641,434.00
823.605,464.75
824.571,452.50
825.534,439.75
826.498,453.50
827.462,480.75
828.425,429.00
829.389,472.75
830.352,461.00
831.315,472.25
832.279,452.25
833.242,448.75
834.204,471.00
835.167,448.75
836.132,420.25
837.095,466.25
838.057,452.25
839.020,443.00
839.982,445.75
840.944,434.50
841.906,478.25
842.868,445.75
843.830,427.50
844.792,471.00
845.753,481.25
846.715,433.00
847.679,440.25
848.640,419.25
849.601,468.25
850.562,424.75
851.523,422.00
852.484,395.25
853.445,457.00
854.406,434.00
855.367,415.50
856.327,446.25
857.288,453.25
858.248,430.50
859.210,471.50
860.170,423.50
861.130,423.75
862.090,395.25
863.050,464.50
864.010,439.00
864.969,473.75
865.929,400.25
866.888,443.75
867.848,438.25
868.807,412.75
869.766,432.00
870.727,467.25
871.686,469.00
872.645,511.25
873.604,480.00
874.562,485.25
875.521,437.75
876.479,445.75
877.437,432.75
878.396,435.25
879.354,472.75
880.312,440.00
881.270,433.50
882.229,481.25
883.187,429.50
884.145,442.00
885.102,414.00
886.059,442.25
887.017,382.50
887.974,443.00
888.931,472.00
889.888,394.75
890.845,428.25
891.802,430.75
892.758,405.50
893.717,398.75
894.673,451.00
895.630,454.50
896.586,432.00
897.542,409.50
898.498,402.75
899.454,472.25
900.410,445.25
901.366,423.50
902.321,455.50
903.277,447.00
904.232,394.00
905.189,413.00
906.145,447.75
907.100,377.50
908.055,399.50
909.010,431.25
909.965,410.25
910.919,442.00
911.874,441.75
912.828,428.75
913.783,466.75
914.737,434.50
915.693,415.50
916.648,464.25
917.602,421.25
918.555,417.00
919.509,426.75
920.463,439.75
921.417,437.00
922.370,457.00
923.324,405.50
924.277,427.75
925.230,429.50
926.183,427.50
927.138,428.75
928.091,446.50
929.044,449.00
929.996,401.50
930.949,427.00
931.902,407.00
932.854,428.25
933.806,432.25
934.758,437.50
935.711,446.50
936.663,437.00
937.614,359.25
938.568,391.00
939.520,415.50
940.471,438.00
941.423,405.75
942.374,428.00
943.326,385.75
944.277,437.50
945.228,429.00
946.179,409.75
947.130,447.50
948.080,412.75
949.031,383.75
949.984,439.00
950.934,419.00
951.884,406.25
952.835,432.00
953.785,415.00
954.735,473.25
955.685,407.50
956.635,413.75
957.585,402.50
958.534,410.50
959.484,376.75
960.433,419.50
961.383,403.75
962.334,405.25
963.283,410.00
964.232,414.75
965.181,414.00
966.130,422.00
967.079,419.00
968.027,420.50
968.976,426.00
969.924,398.75
970.873,416.50
971.821,417.25
972.769,461.50
973.719,401.50
974.667,384.75
975.615,419.75
976.562,407.50
977.510,433.75
978.458,402.50
979.405,412.00
980.352,434.00
981.300,445.50
982.247,392.00
983.194,418.75
984.141,439.50
985.088,441.25
986.036,416.00
986.983,392.50
987.930,438.00
988.876,413.00
989.822,437.00
990.769,437.50
991.715,400.50
992.661,434.50
993.607,398.25
994.553,415.50
995.498,437.75
996.444,431.75
997.389,388.50
998.337,406.00
999.282,485.50
1000.227,432.00
1001.173,419.25
1002.118,399.00
1003.062,440.50
1004.007,443.25
1004.952,407.50
1005.897,436.50
1006.841,472.50
1007.786,396.50
1008.730,425.25
1009.674,436.50
1010.618,453.50
1011.564,424.75
1012.508,406.50
1013.452,440.00
1014.396,439.75
1015.339,485.50
1016.283,419.50
1017.226,354.50
1018.170,454.50
1019.113,445.25
1020.056,409.25
1020.999,394.00
1021.942,412.25
1022.885,450.25
1023.828,424.00
1024.770,389.00
1025.715,419.75
1026.657,443.00
1027.600,434.75
1028.542,465.25
1029.484,465.50
1030.426,467.75
1031.368,424.75
1032.310,441.25
1033.251,445.25
1034.193,416.75
1035.135,428.00
1036.076,459.75
1037.017,465.75
1037.959,419.75
1038.900,432.75
1039.843,451.25
1040.784,474.25
1041.725,429.75
1042.665,466.50
1043.606,434.00
1044.547,431.75
1045.487,418.25
1046.427,433.25
1047.368,437.25
1048.308,433.25
1049.248,441.00
1050.188,409.25
1051.128,434.00
1052.067,445.25
1053.007,456.25
1053.947,442.75
1054.886,413.00
1055.827,414.00
1056.766,429.00
1057.706,419.25
1058.645,358.00
1059.584,431.75
1060.522,449.50
1061.461,410.75
1062.400,415.50
1063.338,417.75
1064.277,452.50
1065.215,435.75
1066.154,404.75
1067.092,447.50
1068.030,450.50
1068.968,450.50
1069.906,446.75
1070.843,454.25
1071.781,413.25
1072.720,454.25
1073.658,458.50
1074.595,483.75
1075.533,429.00
1076.470,454.25
1077.407,489.00
1078.344,431.00
1079.281,441.25
1080.217,458.50
1081.154,418.75
1082.091,439.25
1083.027,425.25
1083.964,421.25
1084.900,455.00
1085.836,422.25
1086.772,413.00
1087.708,426.50
1088.644,437.50
1089.580,456.25
1090.515,440.00
1091.451,414.00
1092.388,414.25
1093.324,424.25
1094.259,430.75
1095.194,476.50
1096.129,440.00
1097.064,429.75
1097.999,457.75
1098.934,441.00
1099.869,447.00
1100.803,447.25
1101.738,451.00
1102.672,465.75
1103.607,424.25
1104.541,414.25
1105.475,451.00
1106.409,450.50
1107.343,424.00
1108.277,403.00
1109.210,442.25
1110.144,432.50
1111.078,420.50
1112.011,435.75
1112.944,443.25
1113.878,418.50
1114.811,447.25
1115.744,446.50
1116.678,431.75
1117.611,453.00
1118.544,455.50
1119.477,424.75
1120.409,420.25
1121.342,443.75
1122.274,481.75
1123.206,1669.75
1124.138,497.50
1125.070,442.25
1126.002,441.00
1126.934,428.75
1127.866,430.00
1128.798,490.50
1129.729,480.75
1130.661,467.50
1131.592,442.00
1132.523,445.50
1133.454,443.50
1134.385,463.00
1135.317,425.25
1136.247,444.25
1137.178,408.50
1138.109,417.50
1139.039,422.75
1139.970,492.25
1140.900,424.00
1141.831,447.75
1142.761,424.50
1143.691,476.75
1144.621,440.50
1145.551,420.75
1146.480,447.00
1147.410,445.00
1148.340,448.00
1149.269,422.50
1150.199,464.25
1151.128,448.50
1152.057,446.00
1152.979,429.50
1153.898,468.00
1154.819,419.00
1155.739,459.00
1156.658,454.50
1157.579,459.50
1158.498,460.25
1159.419,427.25
1160.338,440.50
1161.256,472.25
1162.177,423.50
1163.095,502.75
1164.016,458.25
1164.934,472.25
1165.852,438.75
1166.772,450.50
1167.690,442.25
1168.610,499.00
1169.528,459.00
1170.446,454.75
1171.365,481.50
1172.283,453.50
1173.202,464.50
1174.120,463.50
1175.037,471.50
1175.956,476.00
1176.873,428.50
1177.792,454.50
1178.709,487.00
1179.626,481.00
1180.544,440.50
1181.461,467.25
1182.379,464.25
1183.296,466.50
1184.212,440.50
1185.130,455.75
1186.046,484.25
1186.962,487.75
1187.880,504.00
1188.796,434.50
1189.714,458.75
1190.629,518.75
1191.545,456.00
1192.462,465.75
1193.378,508.00
1194.295,518.00
1195.210,481.75
1196.125,477.50
1197.042,486.00
1197.957,497.75
1198.872,449.50
1199.788,459.00
1200.703,512.75
1201.619,465.50
1202.534,498.00
1203.448,445.25
1204.364,496.75
1205.278,476.25
1206.192,486.25
1207.108,512.75
1208.022,537.00
1208.938,513.00
1209.851,459.00
1210.765,486.00
1211.680,540.00
1212.594,523.25
1213.507,477.75
1214.422,505.00
1215.335,525.50
1216.248,489.75
1217.163,520.00
1218.076,516.25
1218.990,514.75
1219.903,486.50
1220.816,493.00
1221.730,523.75
1222.642,497.00
1223.554,546.25
1224.469,512.75
1225.380,518.50
1226.292,499.00
1227.206,550.50
1228.118,510.25
1229.032,514.25
1229.943,526.25
1230.855,510.75
1231.768,554.75
1232.679,534.25
1233.590,536.75
1234.503,555.75
1235.414,503.00
1236.325,503.00
1237.238,529.25
1238.149,572.50
1239.059,539.75
1239.972,547.25
1240.882,520.75
1241.793,578.00
1242.705,608.25
1243.615,556.25
1244.525,558.25
1245.437,529.75
1246.347,593.00
1247.259,563.00
1248.168,583.25
1249.078,620.00
1249.989,591.50
1250.899,568.50
1251.808,547.25
1252.719,551.75
1253.628,614.25
1254.537,572.50
1255.448,559.50
1256.357,553.00
1257.266,594.75
1258.176,578.00
1259.085,578.50
1259.993,598.50
1260.904,601.50
1261.812,577.75
1262.720,632.25
1263.630,578.75
1264.538,621.75
1265.446,631.50
1266.356,568.00
1267.263,559.00
1268.171,609.25
1269.080,617.00
1269.988,591.50
1270.895,574.50
1271.804,607.00
1272.711,593.00
1273.619,618.00
1274.527,599.75
1275.434,596.75
1276.341,552.25
1277.248,560.25
1278.156,622.75
1279.063,571.75
1279.969,611.00
1280.877,635.25
1281.783,593.75
1282.690,620.00
1283.598,588.25
1284.503,611.00
1285.409,625.25
1286.317,601.00
1287.223,577.75
1288.128,634.75
1289.036,612.50
1289.941,604.25
1290.846,578.00
1291.751,583.00
1292.658,611.75
1293.563,601.50
1294.468,660.00
1295.375,602.75
1296.280,581.50
1297.184,611.25
1298.091,564.00
1298.995,561.25
1299.900,565.00
1300.806,589.75
1301.710,564.00
1302.614,582.50
1303.518,549.00
1304.424,580.75
1305.327,583.00
1306.231,560.75
1307.137,572.75
1308.040,558.25
1308.943,576.25
1309.847,587.50
1310.752,544.50
1311.655,549.25
1312.558,537.25
1313.463,529.50
1314.366,567.25
1315.269,551.50
1316.171,555.00
1317.076,507.75
1317.978,500.75
1318.881,474.50
1319.785,495.50
1320.687,521.75
1321.589,513.25
1322.491,525.00
1323.395,523.00
1324.297,527.75
1325.198,515.50
1326.102,500.00
1327.004,523.50
1327.905,510.50
1328.806,498.25
1329.709,506.75
1330.611,470.75
1331.512,521.00
1332.413,546.75
1333.316,511.25
1334.216,482.25
1335.117,464.00
1336.020,521.25
1336.920,476.00
1337.821,486.00
1338.721,478.25
1339.623,502.75
1340.523,443.25
1341.423,452.25
1342.323,468.25
1343.225,463.00
1344.125,456.50
1345.025,440.75
1345.924,464.00
1346.826,470.75
1347.725,460.25
1348.624,477.50
1349.524,437.75
1350.425,451.25
1351.324,402.75
1352.223,441.00
1353.121,454.50
1354.022,455.75
1354.921,458.75
1355.819,428.75
1356.718,461.50
1357.618,421.25
1358.516,408.00
1359.415,398.50
1360.313,408.25
1361.213,405.75
1362.111,431.25
1363.008,455.50
1363.906,456.50
1364.806,388.00
1365.703,419.00
1366.601,414.00
1367.498,372.25
1368.397,438.50
1369.295,407.75
1370.192,410.50
1371.089,427.00
1371.987,396.00
1372.884,421.25
1373.781,436.75
1374.678,356.50
1375.574,424.25
1376.473,382.00
1377.369,385.75
1378.265,406.00
1379.161,390.50
1380.059,439.00
1380.955,412.50
1381.851,355.00
1382.747,361.25
