RamanScope Measure Spectrum Data V3.72

<< MEASURE CONDITION >>
Exposure Type,Aver
Exposure Time [sec],15
Exposure Count,4
Measure Time,2023/09/13 20:42:09
Data Name,""
Data Comment,""
Rayleigh Wave[nm],532.0

<< SAMPLE SPECTRUM >>
Wave[dcm-1],No104
146.591,439.00
147.626,597.00
148.664,735.50
149.699,916.50
150.737,1060.25
151.772,1271.00
152.809,1485.25
153.846,1677.75
154.881,1906.25
155.918,2108.25
156.953,2343.25
157.989,2538.00
159.026,2721.00
160.060,2852.25
161.096,3048.00
162.130,3137.00
163.167,3205.75
164.200,3368.50
165.236,3391.25
166.272,3494.25
167.305,3541.75
168.341,3578.50
169.374,3617.75
170.409,3708.75
171.445,3746.25
172.477,3802.25
173.512,3854.75
174.545,3901.25
175.580,3967.75
176.614,4003.00
177.647,4109.75
178.681,4179.50
179.713,4209.75
180.747,4232.50
181.781,4212.75
182.813,4233.00
183.847,4218.50
184.878,4202.75
185.912,4114.25
186.945,4064.00
187.976,4096.25
189.010,4061.50
190.043,4053.50
191.073,4083.00
192.106,3974.25
193.137,4068.75
194.170,4034.50
195.202,4101.50
196.232,4099.00
197.265,4112.75
198.297,4212.25
199.327,4182.75
200.359,4249.50
201.388,4279.50
202.420,4312.25
203.452,4326.25
204.481,4322.00
205.512,4375.50
206.544,4462.75
207.573,4490.75
208.604,4517.00
209.635,4580.25
210.663,4606.50
211.694,4689.25
212.725,4745.25
213.753,4855.75
214.783,4980.25
215.813,5011.25
216.841,5148.25
217.871,5184.00
218.899,5363.50
219.929,5491.25
220.959,5666.00
221.986,5756.50
223.016,5852.50
224.045,5948.75
225.072,6030.25
226.101,6032.00
227.130,6064.25
228.157,6009.50
229.185,5913.25
230.214,5823.25
231.241,5652.50
232.269,5571.50
233.297,5370.50
234.323,5329.00
235.351,5268.75
236.379,5083.50
237.407,5069.25
238.433,4960.50
239.460,4935.75
240.488,4871.00
241.513,4967.75
242.540,4886.50
243.568,4897.50
244.592,4947.25
245.619,4898.75
246.646,4944.00
247.671,5029.75
248.697,5070.25
249.724,5157.75
250.748,5171.00
251.774,5152.25
252.801,5208.00
253.827,5101.00
254.850,5087.50
255.876,5031.25
256.902,5000.00
257.925,4973.00
258.951,4929.25
259.976,4936.50
260.999,4922.25
262.024,4885.25
263.049,4903.25
264.074,4963.75
265.097,4955.00
266.122,4946.75
267.146,5009.00
268.168,4968.50
269.193,5025.75
270.217,5003.25
271.241,5005.75
272.263,5156.75
273.287,5136.50
274.311,5189.00
275.332,5210.50
276.356,5291.00
277.379,5280.75
278.402,5369.50
279.424,5419.50
280.447,5468.75
281.470,5510.25
282.492,5558.00
283.513,5638.25
284.536,5704.50
285.558,5660.00
286.581,5670.00
287.601,5591.75
288.623,5581.25
289.645,5523.75
290.665,5451.25
291.687,5425.00
292.709,5340.75
293.730,5251.25
294.750,5236.25
295.771,5148.50
296.792,5101.50
297.813,5016.00
298.832,5004.00
299.853,4860.50
300.874,4815.50
301.895,4781.50
302.913,4689.75
303.934,4617.50
304.954,4632.00
305.975,4592.00
306.993,4500.25
308.013,4452.00
309.033,4447.25
310.052,4425.75
311.072,4361.50
312.090,4317.25
313.109,4269.00
314.129,4306.25
315.148,4277.50
316.165,4165.25
317.184,4195.75
318.203,4206.25
319.222,4110.50
320.238,4087.50
321.257,4100.75
322.275,4141.00
323.294,4004.00
324.312,3992.75
325.328,3973.50
326.346,4003.00
327.364,3921.75
328.382,3919.25
329.397,3933.50
330.415,3909.25
331.432,3908.25
332.450,3857.75
333.467,3898.75
334.482,3863.50
335.499,3784.00
336.516,3796.25
337.533,3822.75
338.547,3816.00
339.564,3761.50
340.580,3767.25
341.597,3770.25
342.613,3799.75
343.627,3753.50
344.643,3696.25
345.659,3728.75
346.675,3757.75
347.690,3670.25
348.704,3690.25
349.719,3682.00
350.735,3682.25
351.750,3647.75
352.765,3618.25
353.778,3686.00
354.793,3593.25
355.808,3654.00
356.822,3618.25
357.837,3577.50
358.851,3633.25
359.864,3643.75
360.878,3572.50
361.892,3593.00
362.906,3543.00
363.920,3575.50
364.932,3545.50
365.945,3548.25
366.959,3506.75
367.972,3558.75
368.986,3582.25
369.999,3503.00
371.010,3557.00
372.023,3511.00
373.036,3601.75
374.049,3543.75
375.061,3564.50
376.072,3569.50
377.084,3624.00
378.097,3618.75
379.109,3594.00
380.121,3615.25
381.133,3602.25
382.143,3625.25
383.155,3609.75
384.166,3650.50
385.178,3644.00
386.189,3722.25
387.201,3687.00
388.212,3717.00
389.221,3711.75
390.232,3701.50
391.243,3695.75
392.254,3759.50
393.264,3739.75
394.275,3732.50
395.283,3706.50
396.294,3756.25
397.304,3735.50
398.314,3734.75
399.324,3741.00
400.334,3707.50
401.344,3726.75
402.351,3678.00
403.361,3717.25
404.370,3652.25
405.380,3693.75
406.389,3646.50
407.398,3655.50
408.407,3671.50
409.414,3626.00
410.423,3618.50
411.431,3592.25
412.440,3575.50
413.448,3594.50
414.457,3539.00
415.465,3522.50
416.471,3531.75
417.479,3554.50
418.487,3478.75
419.495,3483.25
420.503,3499.00
421.510,3509.50
422.518,3519.25
423.525,3468.75
424.530,3460.50
425.537,3470.25
426.544,3456.50
427.551,3436.50
428.558,3449.00
429.565,3419.75
430.571,3469.25
431.578,3404.50
432.582,3419.25
433.588,3455.25
434.595,3409.00
435.601,3392.75
436.607,3377.50
437.612,3405.00
438.618,3409.25
439.624,3421.50
440.627,3394.50
441.633,3349.50
442.638,3398.00
443.643,3436.25
444.648,3364.75
445.653,3409.00
446.658,3350.75
447.663,3425.50
448.667,3415.75
449.672,3429.75
450.674,3410.25
451.678,3380.75
452.682,3427.25
453.687,3408.25
454.690,3397.00
455.694,3375.50
456.698,3418.25
457.702,3392.25
458.705,3418.25
459.709,3446.75
460.710,3412.50
461.713,3367.25
462.716,3386.75
463.719,3452.75
464.722,3432.75
465.725,3459.25
466.727,3489.75
467.730,3416.75
468.732,3421.00
469.735,3430.00
470.737,3440.75
471.737,3418.75
472.739,3443.50
473.741,3430.50
474.742,3458.50
475.744,3398.75
476.746,3432.25
477.747,3447.25
478.748,3412.50
479.750,3482.75
480.751,3488.25
481.752,3443.75
482.753,3424.00
483.751,3457.50
484.752,3475.00
485.753,3488.00
486.753,3444.25
487.753,3490.75
488.754,3487.75
489.754,3441.00
490.754,3432.50
491.754,3500.50
492.754,3453.25
493.753,3443.00
494.753,3493.50
495.752,3500.00
496.752,3489.75
497.749,3465.00
498.748,3456.50
499.747,3426.25
500.746,3499.75
501.745,3512.25
502.744,3474.50
503.742,3446.25
504.741,3466.00
505.739,3471.25
506.737,3430.00
507.735,3442.50
508.734,3443.75
509.732,3388.50
510.729,3429.00
511.727,3408.50
512.725,3446.25
513.720,3425.75
514.718,3428.50
515.715,3421.25
516.712,3390.75
517.709,3372.25
518.706,3337.75
519.703,3400.75
520.700,3338.75
521.696,3412.00
522.693,3402.25
523.689,3348.75
524.686,3377.25
525.682,3417.00
526.678,3440.00
527.674,3371.75
528.670,3421.25
529.666,3373.00
530.661,3320.50
531.657,3397.25
532.652,3356.00
533.648,3415.75
534.641,3394.25
535.636,3377.00
536.631,3414.75
537.626,3445.50
538.621,3428.75
539.616,3423.25
540.610,3441.75
541.605,3478.50
542.599,3425.50
543.593,3454.50
544.587,3482.75
545.581,3430.75
546.575,3429.50
547.569,3497.50
548.563,3453.00
549.557,3495.25
550.550,3473.00
551.543,3464.00
552.537,3464.50
553.530,3501.25
554.523,3501.00
555.516,3480.00
556.509,3481.50
557.502,3448.50
558.494,3472.75
559.487,3471.25
560.479,3497.50
561.472,3468.50
562.464,3486.75
563.456,3481.25
564.448,3478.25
565.440,3525.00
566.432,3475.25
567.423,3496.75
568.415,3521.50
569.404,3533.00
570.396,3485.50
571.387,3527.00
572.378,3543.00
573.369,3498.50
574.360,3531.25
575.351,3606.50
576.341,3561.50
577.332,3577.25
578.323,3578.75
579.313,3588.00
580.303,3595.25
581.293,3610.25
582.283,3648.00
583.273,3653.50
584.263,3624.50
585.253,3621.00
586.243,3632.00
587.232,3670.75
588.222,3660.75
589.211,3697.75
590.200,3635.75
591.189,3688.50
592.178,3716.00
593.167,3723.75
594.156,3737.00
595.145,3717.50
596.133,3690.25
597.122,3642.00
598.110,3747.00
599.098,3754.50
600.086,3730.50
601.074,3735.50
602.062,3754.25
603.050,3820.75
604.038,3770.50
605.025,3806.50
606.013,3821.50
607.000,3796.00
607.987,3823.00
608.975,3755.50
609.962,3780.50
610.949,3805.50
611.936,3834.25
612.922,3789.25
613.909,3801.25
614.895,3859.50
615.882,3797.25
616.868,3798.25
617.854,3726.25
618.841,3800.25
619.826,3807.25
620.812,3762.50
621.798,3797.75
622.784,3774.25
623.769,3777.00
624.755,3740.75
625.740,3740.75
626.725,3733.25
627.711,3733.50
628.698,3673.25
629.683,3671.25
630.667,3642.00
631.652,3635.75
632.637,3589.75
633.621,3575.00
634.606,3552.25
635.590,3553.25
636.574,3541.75
637.558,3512.50
638.542,3527.00
639.526,3472.75
640.510,3454.25
641.493,3471.25
642.477,3463.50
643.460,3366.50
644.444,3420.50
645.427,3423.00
646.410,3339.75
647.393,3321.25
648.376,3370.50
649.359,3318.50
650.341,3312.00
651.324,3257.25
652.307,3281.00
653.289,3292.75
654.271,3265.50
655.253,3254.00
656.235,3280.00
657.217,3245.25
658.199,3224.00
659.181,3290.75
660.163,3171.50
661.144,3173.75
662.126,3223.75
663.107,3140.50
664.088,3158.00
665.069,3110.50
666.050,3159.75
667.033,3156.50
668.014,3159.50
668.995,3150.75
669.975,3086.50
670.956,3105.75
671.936,3112.50
672.916,3146.50
673.896,3134.25
674.876,3099.50
675.856,3038.25
676.836,3073.75
677.816,3044.25
678.795,3043.75
679.775,3030.25
680.754,3044.75
681.734,3025.00
682.713,3016.75
683.692,2973.00
684.671,2925.00
685.650,2943.00
686.629,2930.75
687.607,2937.00
688.586,2905.00
689.564,2883.75
690.543,2856.75
691.523,2852.50
692.501,2839.25
693.479,2852.50
694.457,2809.00
695.435,2752.00
696.413,2753.00
697.390,2757.00
698.368,2736.25
699.345,2737.50
700.322,2705.25
701.300,2685.50
702.277,2694.25
703.254,2678.00
704.231,2656.75
705.207,2602.00
706.184,2688.50
707.161,2640.50
708.137,2627.50
709.113,2576.50
710.090,2626.50
711.068,2594.75
712.044,2539.50
713.020,2532.50
713.996,2538.00
714.971,2531.75
715.947,2499.00
716.922,2503.25
717.898,2535.75
718.873,2532.00
719.848,2474.75
720.823,2501.25
721.798,2503.00
722.773,2448.00
723.748,2473.75
724.723,2456.25
725.697,2438.50
726.672,2446.50
727.646,2456.25
728.622,2417.75
729.596,2420.00
730.570,2466.75
731.544,2438.75
732.518,2401.50
733.492,2383.75
734.466,2403.75
735.439,2403.75
736.413,2367.25
737.386,2354.75
738.359,2347.75
739.332,2329.00
740.305,2348.25
741.278,2348.00
742.251,2340.75
743.224,2304.25
744.196,2340.75
745.171,2281.00
746.143,2335.75
747.115,2305.25
748.087,2305.75
749.059,2287.00
750.031,2264.25
751.003,2279.25
751.975,2281.75
752.947,2253.00
753.918,2299.25
754.890,2258.00
755.861,2221.25
756.832,2180.25
757.803,2246.75
758.774,2212.00
759.747,2243.50
760.718,2197.50
761.689,2173.75
762.659,2193.25
763.630,2173.50
764.600,2154.50
765.570,2141.25
766.540,2125.25
767.510,2123.75
768.480,2117.00
769.450,2123.75
770.420,2060.00
771.390,2082.75
772.359,2043.00
773.329,2056.50
774.300,2091.50
775.269,2067.75
776.238,2059.25
777.207,2067.50
778.176,2027.00
779.145,2019.75
780.114,2034.25
781.083,1993.75
782.051,1958.50
783.019,1985.25
783.988,2000.25
784.956,1969.00
785.924,1961.50
786.894,1892.50
787.862,1972.00
788.830,1970.00
789.797,1965.75
790.765,1904.75
791.732,1911.75
792.700,1872.25
793.667,1937.50
794.634,1898.25
795.601,1893.00
796.568,1904.00
797.535,1869.75
798.502,1893.50
799.468,1814.25
800.437,1875.00
801.403,1840.50
802.370,1870.75
803.336,1842.25
804.302,1840.25
805.268,1848.50
806.234,1809.25
807.200,1863.00
808.166,1797.75
809.131,1808.75
810.097,1775.50
811.062,1786.25
812.027,1827.25
812.994,1764.50
813.960,1798.50
814.925,1801.00
815.889,1747.25
816.854,1738.75
817.819,1768.50
818.783,1757.50
819.748,1763.25
820.712,1817.00
821.677,1750.25
822.641,1786.25
823.605,1713.75
824.571,1714.75
825.534,1733.25
826.498,1760.00
827.462,1756.50
828.425,1690.00
829.389,1768.00
830.352,1745.75
831.315,1721.50
832.279,1730.75
833.242,1754.50
834.204,1679.50
835.167,1701.00
836.132,1713.75
837.095,1712.00
838.057,1775.50
839.020,1746.25
839.982,1725.25
840.944,1704.75
841.906,1690.75
842.868,1704.25
843.830,1651.50
844.792,1718.75
845.753,1656.00
846.715,1762.75
847.679,1681.00
848.640,1625.75
849.601,1677.00
850.562,1695.50
851.523,1700.25
852.484,1695.00
853.445,1673.00
854.406,1693.50
855.367,1671.50
856.327,1653.25
857.288,1687.50
858.248,1629.50
859.210,1673.25
860.170,1687.25
861.130,1667.00
862.090,1651.75
863.050,1649.50
864.010,1622.25
864.969,1640.00
865.929,1597.25
866.888,1603.00
867.848,1628.50
868.807,1647.00
869.766,1626.50
870.727,1649.75
871.686,1605.00
872.645,1620.25
873.604,1619.25
874.562,1613.50
875.521,1649.00
876.479,1619.75
877.437,1595.00
878.396,1624.50
879.354,1600.75
880.312,1606.25
881.270,1619.00
882.229,1533.25
883.187,1597.50
884.145,1580.25
885.102,1576.25
886.059,1599.25
887.017,1610.25
887.974,1620.00
888.931,1653.25
889.888,1558.00
890.845,1587.00
891.802,1581.75
892.758,1607.00
893.717,1584.00
894.673,1608.50
895.630,1585.00
896.586,1585.75
897.542,1602.75
898.498,1606.50
899.454,1584.25
900.410,1589.50
901.366,1590.00
902.321,1533.75
903.277,1604.25
904.232,1628.25
905.189,1586.75
906.145,1595.00
907.100,1573.25
908.055,1571.50
909.010,1591.25
909.965,1574.00
910.919,1575.75
911.874,1586.25
912.828,1551.75
913.783,1581.75
914.737,1610.25
915.693,1617.00
916.648,1580.25
917.602,1574.25
918.555,1574.50
919.509,1571.25
920.463,1603.50
921.417,1535.75
922.370,1547.25
923.324,1608.75
924.277,1555.75
925.230,1559.75
926.183,1550.00
927.138,1575.00
928.091,1542.00
929.044,1608.25
929.996,1595.00
930.949,1595.25
931.902,1604.75
932.854,1621.25
933.806,1600.75
934.758,1576.50
935.711,1583.00
936.663,1579.50
937.614,1614.75
938.568,1634.75
939.520,1565.50
940.471,1614.50
941.423,1560.50
942.374,1594.00
943.326,1578.75
944.277,1570.50
945.228,1596.25
946.179,1587.50
947.130,1591.75
948.080,1605.50
949.031,1593.25
949.984,1639.25
950.934,1568.50
951.884,1538.25
952.835,1597.50
953.785,1561.50
954.735,1571.00
955.685,1580.75
956.635,1521.75
957.585,1621.25
958.534,1544.25
959.484,1551.75
960.433,1595.25
961.383,1567.00
962.334,1559.00
963.283,1572.25
964.232,1576.00
965.181,1547.00
966.130,1578.25
967.079,1557.25
968.027,1517.00
968.976,1552.50
969.924,1539.25
970.873,1551.25
971.821,1544.00
972.769,1592.50
973.719,1584.50
974.667,1596.00
975.615,1600.75
976.562,1529.50
977.510,1573.50
978.458,1569.25
979.405,1560.25
980.352,1529.75
981.300,1562.50
982.247,1545.00
983.194,1559.00
984.141,1510.25
985.088,1533.00
986.036,1551.00
986.983,1547.00
987.930,1568.50
988.876,1550.00
989.822,1512.25
990.769,1541.25
991.715,1529.50
992.661,1552.25
993.607,1557.50
994.553,1539.75
995.498,1566.75
996.444,1523.00
997.389,1574.75
998.337,1533.25
999.282,1513.75
1000.227,1590.75
1001.173,1555.25
1002.118,1555.00
1003.062,1519.00
1004.007,1573.00
1004.952,1545.50
1005.897,1522.00
1006.841,1545.50
1007.786,1539.75
1008.730,1555.50
1009.674,1542.50
1010.618,1525.75
1011.564,1553.00
1012.508,1580.50
1013.452,1541.50
1014.396,1535.75
1015.339,1559.00
1016.283,1545.25
1017.226,1537.75
1018.170,1529.25
1019.113,1505.00
1020.056,1530.75
1020.999,1585.50
1021.942,1529.25
1022.885,1509.00
1023.828,1573.25
1024.770,1590.00
1025.715,1547.00
1026.657,1572.75
1027.600,1540.50
1028.542,1587.50
1029.484,1585.25
1030.426,1595.00
1031.368,1599.75
1032.310,1558.25
1033.251,1592.50
1034.193,1595.50
1035.135,1545.75
1036.076,1556.00
1037.017,1548.00
1037.959,1579.50
1038.900,1559.50
1039.843,1563.25
1040.784,1596.25
1041.725,1574.25
1042.665,1560.25
1043.606,1628.50
1044.547,1576.75
1045.487,1615.00
1046.427,1618.00
1047.368,1559.50
1048.308,1617.50
1049.248,1548.00
1050.188,1618.25
1051.128,1628.50
1052.067,1616.50
1053.007,1605.50
1053.947,1625.50
1054.886,1610.25
1055.827,1605.75
1056.766,1607.50
1057.706,1660.25
1058.645,1653.50
1059.584,1604.00
1060.522,1612.25
1061.461,1660.50
1062.400,1671.00
1063.338,1634.00
1064.277,1671.25
1065.215,1653.25
1066.154,1655.25
1067.092,1678.25
1068.030,1668.50
1068.968,1659.25
1069.906,1627.75
1070.843,1637.00
1071.781,1672.75
1072.720,1658.75
1073.658,1669.75
1074.595,1738.75
1075.533,1686.75
1076.470,1687.25
1077.407,1671.25
1078.344,1658.00
1079.281,1679.50
1080.217,1691.25
1081.154,1736.75
1082.091,1725.00
1083.027,1687.25
1083.964,1713.00
1084.900,1709.00
1085.836,1730.75
1086.772,1732.00
1087.708,1723.75
1088.644,1739.50
1089.580,1733.75
1090.515,1708.50
1091.451,1692.50
1092.388,1743.00
1093.324,1708.25
1094.259,1729.00
1095.194,1698.75
1096.129,1720.50
1097.064,1749.25
1097.999,1746.00
1098.934,1701.25
1099.869,1705.00
1100.803,1736.75
1101.738,1733.25
1102.672,1722.50
1103.607,1733.50
1104.541,1718.50
1105.475,1682.00
1106.409,1698.75
1107.343,1729.50
1108.277,1706.50
1109.210,1675.50
1110.144,1689.50
1111.078,1670.75
1112.011,1671.50
1112.944,1681.25
1113.878,1642.25
1114.811,1673.00
1115.744,1652.75
1116.678,1665.00
1117.611,1641.00
1118.544,1690.00
1119.477,1635.50
1120.409,1644.75
1121.342,1592.00
1122.274,1630.75
1123.206,1630.25
1124.138,1630.75
1125.070,1610.00
1126.002,1642.25
1126.934,1643.25
1127.866,1621.50
1128.798,1586.25
1129.729,1590.50
1130.661,1575.00
1131.592,1615.75
1132.523,1591.50
1133.454,1564.50
1134.385,1528.50
1135.317,1603.50
1136.247,1546.75
1137.178,1538.25
1138.109,1572.50
1139.039,1544.50
1139.970,1541.25
1140.900,1487.00
1141.831,1544.00
1142.761,1499.25
1143.691,1537.75
1144.621,1544.00
1145.551,1544.50
1146.480,1560.50
1147.410,1501.75
1148.340,1556.50
1149.269,1494.25
1150.199,1502.50
1151.128,1526.00
1152.057,1488.50
1152.979,1473.00
1153.898,1494.00
1154.819,1481.75
1155.739,1515.50
1156.658,1458.50
1157.579,1485.75
1158.498,1493.50
1159.419,1465.25
1160.338,1494.50
1161.256,1508.50
1162.177,1443.25
1163.095,1448.75
1164.016,1494.00
1164.934,1487.25
1165.852,1446.50
1166.772,1474.75
1167.690,1450.25
1168.610,1491.00
1169.528,1477.75
1170.446,1458.50
1171.365,1445.50
1172.283,1487.00
1173.202,1440.00
1174.120,1436.50
1175.037,1453.50
1175.956,1494.00
1176.873,1454.50
1177.792,1430.75
1178.709,1417.50
1179.626,1439.00
1180.544,1446.00
1181.461,1425.50
1182.379,1410.75
1183.296,1428.50
1184.212,1424.50
1185.130,1395.50
1186.046,1419.25
1186.962,1461.00
1187.880,1450.25
1188.796,1465.25
1189.714,1457.25
1190.629,1427.00
1191.545,1384.25
1192.462,1466.50
1193.378,1445.00
1194.295,1408.25
1195.210,1397.50
1196.125,1386.00
1197.042,1427.25
1197.957,1428.00
1198.872,1437.00
1199.788,1399.75
1200.703,1428.25
1201.619,1412.00
1202.534,1439.25
1203.448,1451.25
1204.364,1458.00
1205.278,1398.00
1206.192,1403.75
1207.108,1449.00
1208.022,1423.00
1208.938,1418.00
1209.851,1417.50
1210.765,1452.25
1211.680,1403.75
1212.594,1398.75
1213.507,1478.25
1214.422,1418.00
1215.335,1443.25
1216.248,1364.75
1217.163,1411.75
1218.076,1432.75
1218.990,1433.25
1219.903,1424.50
1220.816,1393.25
1221.730,1410.75
1222.642,1459.25
1223.554,1435.00
1224.469,1442.75
1225.380,1438.50
1226.292,1444.25
1227.206,1403.75
1228.118,1424.50
1229.032,1432.50
1229.943,1396.25
1230.855,1451.00
1231.768,1425.50
1232.679,1467.75
1233.590,1433.75
1234.503,1446.75
1235.414,1457.00
1236.325,1413.50
1237.238,1459.25
1238.149,1481.25
1239.059,1437.75
1239.972,1433.00
1240.882,1472.50
1241.793,1425.00
1242.705,1483.50
1243.615,1472.75
1244.525,1480.75
1245.437,1464.25
1246.347,1475.75
1247.259,1519.50
1248.168,1437.25
1249.078,1467.50
1249.989,1490.25
1250.899,1504.75
1251.808,1497.00
1252.719,1487.50
1253.628,1562.25
1254.537,1483.50
1255.448,1516.75
1256.357,1474.50
1257.266,1474.75
1258.176,1464.75
1259.085,1479.50
1259.993,1514.50
1260.904,1513.00
1261.812,1477.75
1262.720,1515.50
1263.630,1496.50
1264.538,1481.25
1265.446,1511.00
1266.356,1470.75
1267.263,1501.50
1268.171,1510.25
1269.080,1476.50
1269.988,1483.00
1270.895,1503.50
1271.804,1493.00
1272.711,1520.75
1273.619,1508.75
1274.527,1520.00
1275.434,1524.75
1276.341,1550.50
1277.248,1544.50
1278.156,1496.00
1279.063,1540.00
1279.969,1510.25
1280.877,1496.75
1281.783,1521.50
1282.690,1513.75
1283.598,1564.25
1284.503,1520.75
1285.409,1498.75
1286.317,1548.75
1287.223,1524.50
1288.128,1509.75
1289.036,1526.00
1289.941,1475.00
1290.846,1513.00
1291.751,1524.50
1292.658,1539.00
1293.563,1533.50
1294.468,1506.50
1295.375,1559.75
1296.280,1488.75
1297.184,1461.50
1298.091,1460.50
1298.995,1491.25
1299.900,1525.00
1300.806,1472.00
1301.710,1515.25
1302.614,1482.25
1303.518,1476.25
1304.424,1474.75
1305.327,1473.50
1306.231,1525.00
1307.137,1456.00
1308.040,1518.25
1308.943,1512.75
1309.847,1509.50
1310.752,1458.50
1311.655,1436.25
1312.558,1454.00
1313.463,1433.00
1314.366,1429.75
1315.269,1461.50
1316.171,1463.00
1317.076,1466.75
1317.978,1445.25
1318.881,1438.25
1319.785,1418.25
1320.687,1425.75
1321.589,1398.00
1322.491,1397.25
