RamanScope Measure Spectrum Data V3.72

<< MEASURE CONDITION >>
Exposure Type,Aver
Exposure Time [sec],15
Exposure Count,4
Measure Time,2023/09/13 20:45:17
Data Name,""
Data Comment,""
Rayleigh Wave[nm],532.0

<< SAMPLE SPECTRUM >>
Wave[dcm-1],No106
146.591,553.25
147.626,619.75
148.664,787.50
149.699,974.00
150.737,1156.75
151.772,1413.00
152.809,1591.50
153.846,1866.50
154.881,2069.50
155.918,2346.00
156.953,2610.50
157.989,2792.50
159.026,3009.25
160.060,3170.75
161.096,3353.50
162.130,3487.75
163.167,3524.50
164.200,3643.25
165.236,3748.50
166.272,3845.00
167.305,3869.50
168.341,3929.75
169.374,3968.25
170.409,4051.25
171.445,4188.25
172.477,4242.50
173.512,4272.00
174.545,4374.25
175.580,4503.00
176.614,4580.25
177.647,4665.75
178.681,4698.50
179.713,4799.25
180.747,4810.75
181.781,4756.00
182.813,4726.25
183.847,4776.75
184.878,4662.25
185.912,4572.50
186.945,4588.75
187.976,4562.00
189.010,4516.00
190.043,4520.00
191.073,4571.50
192.106,4550.00
193.137,4622.50
194.170,4574.25
195.202,4638.75
196.232,4680.25
197.265,4757.50
198.297,4823.75
199.327,4794.75
200.359,4841.25
201.388,4939.75
202.420,5028.50
203.452,5107.50
204.481,5131.25
205.512,5187.25
206.544,5359.25
207.573,5416.75
208.604,5544.00
209.635,5554.00
210.663,5680.00
211.694,5817.50
212.725,5965.25
213.753,6068.50
214.783,6205.50
215.813,6350.25
216.841,6418.50
217.871,6529.50
218.899,6564.75
219.929,6618.75
220.959,6661.75
221.986,6631.50
223.016,6606.25
224.045,6563.00
225.072,6515.75
226.101,6399.00
227.130,6319.25
228.157,6273.75
229.185,6150.50
230.214,6039.00
231.241,6020.00
232.269,5933.25
233.297,5832.25
234.323,5781.00
235.351,5764.75
236.379,5692.75
237.407,5683.50
238.433,5617.00
239.460,5594.75
240.488,5603.00
241.513,5606.25
242.540,5683.25
243.568,5644.50
244.592,5754.00
245.619,5760.50
246.646,5790.25
247.671,5903.50
248.697,5946.25
249.724,5922.25
250.748,5937.75
251.774,5944.75
252.801,5907.50
253.827,5871.00
254.850,5838.75
255.876,5832.00
256.902,5827.00
257.925,5799.00
258.951,5868.75
259.976,5812.00
260.999,5878.25
262.024,5862.50
263.049,5902.50
264.074,5932.75
265.097,5898.75
266.122,5966.50
267.146,6028.50
268.168,5999.50
269.193,6066.00
270.217,6062.50
271.241,6128.50
272.263,6227.25
273.287,6210.00
274.311,6229.25
275.332,6277.00
276.356,6353.75
277.379,6381.50
278.402,6428.50
279.424,6445.75
280.447,6390.25
281.470,6415.00
282.492,6416.25
283.513,6321.75
284.536,6271.75
285.558,6182.25
286.581,6153.50
287.601,6058.25
288.623,6014.25
289.645,5978.25
290.665,5990.00
291.687,5871.75
292.709,5742.25
293.730,5652.00
294.750,5585.75
295.771,5569.25
296.792,5517.50
297.813,5492.50
298.832,5390.25
299.853,5391.75
300.874,5289.50
301.895,5234.00
302.913,5158.25
303.934,5172.00
304.954,5061.25
305.975,5041.50
306.993,4964.50
308.013,4917.00
309.033,4915.75
310.052,4809.25
311.072,4829.25
312.090,4799.25
313.109,4817.50
314.129,4796.50
315.148,4721.00
316.165,4648.50
317.184,4632.75
318.203,4632.75
319.222,4598.50
320.238,4580.50
321.257,4543.50
322.275,4557.00
323.294,4562.00
324.312,4513.75
325.328,4497.25
326.346,4502.50
327.364,4461.25
328.382,4412.50
329.397,4427.00
330.415,4414.00
331.432,4328.00
332.450,4376.00
333.467,4352.50
334.482,4364.75
335.499,4346.25
336.516,4317.25
337.533,4325.50
338.547,4351.75
339.564,4310.25
340.580,4312.50
341.597,4293.25
342.613,4294.50
343.627,4249.25
344.643,4255.75
345.659,4255.50
346.675,4256.75
347.690,4230.75
348.704,4227.00
349.719,4183.00
350.735,4182.50
351.750,4185.00
352.765,4229.25
353.778,4191.50
354.793,4217.00
355.808,4202.75
356.822,4206.50
357.837,4204.00
358.851,4210.25
359.864,4136.25
360.878,4193.25
361.892,4172.50
362.906,4203.25
363.920,4154.00
364.932,4115.25
365.945,4143.75
366.959,4193.75
367.972,4224.25
368.986,4168.00
369.999,4188.00
371.010,4179.25
372.023,4159.25
373.036,4185.25
374.049,4172.25
375.061,4210.25
376.072,4239.25
377.084,4266.25
378.097,4227.00
379.109,4223.25
380.121,4227.25
381.133,4248.25
382.143,4301.25
383.155,4205.25
384.166,4249.50
385.178,4303.00
386.189,4266.00
387.201,4286.00
388.212,4325.25
389.221,4212.50
390.232,4252.25
391.243,4241.50
392.254,4232.75
393.264,4256.00
394.275,4177.50
395.283,4193.75
396.294,4177.75
397.304,4216.25
398.314,4141.50
399.324,4191.50
400.334,4121.50
401.344,4151.25
402.351,4075.75
403.361,4173.50
404.370,4088.50
405.380,4116.50
406.389,4077.75
407.398,4103.75
408.407,4054.25
409.414,4033.75
410.423,4031.25
411.431,4037.75
412.440,3949.25
413.448,4104.00
414.457,3996.75
415.465,3981.00
416.471,3930.00
417.479,3968.00
418.487,3969.50
419.495,3971.00
420.503,3904.75
421.510,3912.25
422.518,3952.25
423.525,3922.75
424.530,3883.75
425.537,3916.25
426.544,3907.50
427.551,3816.00
428.558,3939.75
429.565,3883.00
430.571,3891.50
431.578,3852.50
432.582,3878.75
433.588,3863.75
434.595,3857.75
435.601,3835.50
436.607,3844.50
437.612,3821.00
438.618,3906.00
439.624,3809.25
440.627,3829.50
441.633,3821.50
442.638,3834.75
443.643,3874.00
444.648,3791.50
445.653,3819.50
446.658,3843.25
447.663,3865.75
448.667,3819.75
449.672,3827.50
450.674,3902.00
451.678,3847.25
452.682,3862.50
453.687,3836.25
454.690,3869.25
455.694,3815.00
456.698,3846.25
457.702,3861.50
458.705,3865.75
459.709,3872.00
460.710,3878.50
461.713,3833.75
462.716,3890.50
463.719,3836.50
464.722,3925.50
465.725,3893.00
466.727,3877.00
467.730,3928.75
468.732,3908.00
469.735,3843.50
470.737,3905.25
471.737,3941.25
472.739,3887.75
473.741,3913.50
474.742,3887.75
475.744,3883.25
476.746,3933.75
477.747,3926.25
478.748,3909.50
479.750,3924.50
480.751,3958.25
481.752,3970.75
482.753,3927.00
483.751,3912.50
484.752,3908.75
485.753,3888.00
486.753,3943.75
487.753,3989.25
488.754,3931.50
489.754,3935.25
490.754,3959.25
491.754,3874.00
492.754,3912.00
493.753,3910.25
494.753,3905.00
495.752,3899.25
496.752,3933.50
497.749,3909.25
498.748,3929.25
499.747,3932.75
500.746,3964.00
501.745,3907.50
502.744,3890.00
503.742,3848.50
504.741,3854.00
505.739,3869.75
506.737,3902.75
507.735,3907.50
508.734,3900.75
509.732,3870.50
510.729,3835.50
511.727,3775.50
512.725,3788.75
513.720,3789.00
514.718,3823.25
515.715,3754.50
516.712,3716.50
517.709,3663.75
518.706,3712.75
519.703,3759.00
520.700,3747.50
521.696,3643.25
522.693,3719.25
523.689,3648.75
524.686,3677.50
525.682,3672.75
526.678,3736.75
527.674,3642.00
528.670,3719.75
529.666,3691.25
530.661,3679.25
531.657,3700.50
532.652,3760.75
533.648,3745.50
534.641,3734.00
535.636,3691.75
536.631,3741.00
537.626,3741.25
538.621,3724.25
539.616,3718.75
540.610,3717.75
541.605,3772.25
542.599,3803.00
543.593,3735.50
544.587,3765.25
545.581,3733.00
546.575,3681.25
547.569,3710.00
548.563,3729.25
549.557,3683.75
550.550,3726.75
551.543,3690.50
552.537,3703.25
553.530,3723.50
554.523,3746.75
555.516,3715.50
556.509,3695.00
557.502,3720.00
558.494,3714.00
559.487,3692.00
560.479,3756.75
561.472,3671.00
562.464,3660.75
563.456,3711.00
564.448,3690.75
565.440,3719.50
566.432,3647.75
567.423,3722.75
568.415,3749.00
569.404,3742.00
570.396,3769.75
571.387,3716.25
572.378,3779.00
573.369,3753.50
574.360,3752.50
575.351,3815.75
576.341,3835.00
577.332,3821.25
578.323,3809.75
579.313,3851.25
580.303,3817.25
581.293,3811.75
582.283,3810.75
583.273,3792.75
584.263,3916.75
585.253,3916.00
586.243,3910.75
587.232,3923.00
588.222,3862.00
589.211,3902.00
590.200,3953.50
591.189,3953.75
592.178,3892.75
593.167,3958.50
594.156,3907.25
595.145,4016.50
596.133,3945.25
597.122,4000.75
598.110,3972.00
599.098,3948.25
600.086,3988.50
601.074,4029.00
602.062,4021.50
603.050,3987.75
604.038,3996.25
605.025,4022.25
606.013,3989.50
607.000,4042.50
607.987,4032.50
608.975,3981.25
609.962,4027.50
610.949,4021.25
611.936,3967.75
612.922,3958.50
613.909,3930.25
614.895,3979.25
615.882,3930.25
616.868,3904.50
617.854,3855.75
618.841,3805.50
619.826,3813.00
620.812,3810.00
621.798,3825.75
622.784,3808.00
623.769,3731.25
624.755,3708.75
625.740,3755.00
626.725,3731.25
627.711,3693.50
628.698,3619.75
629.683,3632.00
630.667,3548.00
631.652,3555.25
632.637,3536.50
633.621,3500.25
634.606,3510.75
635.590,3534.75
636.574,3499.00
637.558,3449.75
638.542,3488.00
639.526,3410.75
640.510,3381.00
641.493,3406.50
642.477,3352.50
643.460,3339.50
644.444,3303.00
645.427,3316.50
646.410,3272.75
647.393,3284.50
648.376,3234.25
649.359,3265.00
650.341,3225.50
651.324,3219.00
652.307,3191.50
653.289,3180.75
654.271,3204.00
655.253,3196.50
656.235,3177.00
657.217,3211.50
658.199,3179.75
659.181,3144.25
660.163,3134.25
661.144,3113.75
662.126,3124.50
663.107,3158.25
664.088,3094.00
665.069,3109.00
666.050,3090.75
667.033,3122.50
668.014,3086.00
668.995,3072.75
669.975,3085.00
670.956,3101.25
671.936,3027.25
672.916,3072.75
673.896,3008.25
674.876,3041.25
675.856,3009.75
676.836,2998.75
677.816,2968.50
678.795,2974.75
679.775,2920.25
680.754,2898.50
681.734,2926.25
682.713,2907.00
683.692,2930.25
684.671,2837.50
685.650,2823.25
686.629,2832.75
687.607,2849.25
688.586,2803.25
689.564,2748.25
690.543,2776.00
691.523,2769.25
692.501,2754.25
693.479,2749.75
694.457,2679.75
695.435,2620.50
696.413,2639.50
697.390,2683.00
698.368,2669.25
699.345,2684.75
700.322,2644.25
701.300,2647.00
702.277,2627.25
703.254,2590.00
704.231,2656.75
705.207,2611.25
706.184,2640.25
707.161,2580.25
708.137,2609.00
709.113,2584.25
710.090,2546.00
711.068,2582.75
712.044,2548.50
713.020,2535.75
713.996,2556.00
714.971,2475.50
715.947,2456.00
716.922,2451.25
717.898,2488.75
718.873,2467.25
719.848,2463.75
720.823,2508.25
721.798,2470.25
722.773,2452.00
723.748,2424.50
724.723,2432.00
725.697,2476.00
726.672,2425.75
727.646,2398.50
728.622,2430.25
729.596,2388.00
730.570,2400.75
731.544,2450.00
732.518,2398.00
733.492,2397.00
734.466,2413.50
735.439,2405.25
736.413,2368.50
737.386,2382.25
738.359,2367.75
739.332,2380.50
740.305,2369.25
741.278,2384.50
742.251,2368.25
743.224,2265.00
744.196,2334.25
745.171,2326.00
746.143,2303.75
747.115,2336.25
748.087,2276.50
749.059,2304.25
750.031,2272.75
751.003,2305.25
751.975,2287.25
752.947,2307.00
753.918,2241.75
754.890,2276.00
755.861,2251.00
756.832,2204.25
757.803,2230.50
758.774,2196.00
759.747,2234.50
760.718,2196.50
761.689,2152.75
762.659,2173.75
763.630,2168.50
764.600,2184.50
765.570,2122.75
766.540,2168.25
767.510,2190.00
768.480,2157.50
769.450,2124.75
770.420,2132.75
771.390,2129.25
772.359,2090.75
773.329,2090.50
774.300,2131.00
775.269,2103.00
776.238,2089.75
777.207,2104.00
778.176,2105.25
779.145,2086.75
780.114,2096.50
781.083,2036.00
782.051,2051.75
783.019,2118.50
783.988,2119.50
784.956,2048.25
785.924,2036.75
786.894,2016.75
787.862,2021.25
788.830,2006.25
789.797,2037.00
790.765,2026.00
791.732,1980.25
792.700,2006.00
793.667,1992.25
794.634,1997.50
795.601,1955.25
796.568,1953.00
797.535,1995.50
798.502,1993.25
799.468,1992.50
800.437,1953.75
801.403,1911.75
802.370,1984.75
803.336,1947.00
804.302,1963.75
805.268,1949.25
806.234,1949.25
807.200,1918.75
808.166,1918.25
809.131,1927.00
810.097,1939.00
811.062,1879.00
812.027,1909.75
812.994,1915.25
813.960,1985.50
814.925,1890.25
815.889,1922.50
816.854,1904.00
817.819,1845.00
818.783,1895.50
819.748,1902.25
820.712,1896.50
821.677,1857.00
822.641,1823.00
823.605,1841.00
824.571,1844.75
825.534,1828.75
826.498,1851.75
827.462,1850.75
828.425,1831.50
829.389,1825.00
830.352,1814.00
831.315,1852.75
832.279,1826.75
833.242,1831.50
834.204,1865.25
835.167,1824.75
836.132,1853.75
837.095,1815.00
838.057,1771.75
839.020,1798.50
839.982,1810.50
840.944,1805.75
841.906,1812.50
842.868,1814.00
843.830,1790.50
844.792,1782.50
845.753,1797.00
846.715,1775.50
847.679,1766.50
848.640,1761.75
849.601,1791.25
850.562,1807.25
851.523,1772.50
852.484,1772.75
853.445,1789.25
854.406,1773.50
855.367,1796.00
856.327,1776.50
857.288,1735.00
858.248,1727.75
859.210,1799.75
860.170,1720.25
861.130,1778.25
862.090,1730.50
863.050,1756.75
864.010,1715.25
864.969,1766.25
865.929,1752.25
866.888,1749.25
867.848,1741.25
868.807,1746.75
869.766,1732.25
870.727,1712.25
871.686,1729.25
872.645,1727.50
873.604,1718.00
874.562,1715.00
875.521,1721.00
876.479,1701.75
877.437,1737.75
878.396,1741.50
879.354,1731.25
880.312,1711.75
881.270,1707.00
882.229,1712.50
883.187,1737.50
884.145,1713.75
885.102,1700.75
886.059,1724.50
887.017,1746.50
887.974,1697.00
888.931,1727.25
889.888,1714.75
890.845,1709.75
891.802,1680.50
892.758,1695.50
893.717,1692.00
894.673,1707.75
895.630,1671.75
896.586,1694.50
897.542,1730.25
898.498,1677.25
899.454,1669.00
900.410,1693.00
901.366,1713.50
902.321,1675.00
903.277,1677.75
904.232,1722.75
905.189,1662.00
906.145,1684.25
907.100,1689.25
908.055,1677.25
909.010,1676.00
909.965,1718.25
910.919,1701.25
911.874,1709.00
912.828,1733.00
913.783,1661.50
914.737,1734.75
915.693,1670.00
916.648,1671.50
917.602,1631.25
918.555,1699.25
919.509,1672.25
920.463,1712.25
921.417,1688.50
922.370,1732.00
923.324,1669.25
924.277,1710.50
925.230,1714.00
926.183,1690.25
927.138,1651.25
928.091,1678.75
929.044,1680.75
929.996,1664.00
930.949,1683.50
931.902,1647.50
932.854,1688.00
933.806,1695.75
934.758,1720.75
935.711,1720.00
936.663,1740.75
937.614,1716.25
938.568,1666.25
939.520,1683.25
940.471,1716.25
941.423,1707.00
942.374,1693.00
943.326,1705.00
944.277,1729.25
945.228,1747.00
946.179,1721.50
947.130,1693.50
948.080,1713.50
949.031,1710.50
949.984,1659.75
950.934,1691.25
951.884,1676.75
952.835,1756.50
953.785,1704.25
954.735,1673.25
955.685,1701.00
956.635,1715.25
957.585,1698.50
958.534,1688.75
959.484,1682.75
960.433,1678.25
961.383,1653.50
962.334,1665.50
963.283,1705.00
964.232,1654.75
965.181,1689.00
966.130,1690.50
967.079,1691.75
968.027,1659.75
968.976,1683.50
969.924,1663.25
970.873,1682.75
971.821,1665.00
972.769,1682.25
973.719,1633.50
974.667,1605.75
975.615,1669.00
976.562,1692.50
977.510,1643.00
978.458,1650.75
979.405,1659.00
980.352,1667.25
981.300,1644.75
982.247,1631.25
983.194,1658.00
984.141,1614.50
985.088,1657.75
986.036,1658.50
986.983,1652.50
987.930,1627.00
988.876,1676.50
989.822,1653.00
990.769,1633.75
991.715,1659.25
992.661,1611.50
993.607,1630.50
994.553,1642.00
995.498,1644.50
996.444,1634.75
997.389,1639.50
998.337,1635.25
999.282,1649.75
1000.227,1639.50
1001.173,1617.75
1002.118,1601.50
1003.062,1589.00
1004.007,1620.00
1004.952,1644.75
1005.897,1675.75
1006.841,1619.50
1007.786,1598.75
1008.730,1639.50
1009.674,1661.00
1010.618,1636.25
1011.564,1589.50
1012.508,1590.00
1013.452,1601.75
1014.396,1659.25
1015.339,1600.75
1016.283,1595.75
1017.226,1551.25
1018.170,1598.25
1019.113,1571.25
1020.056,1655.00
1020.999,1606.25
1021.942,1623.50
1022.885,1584.25
1023.828,1590.25
1024.770,1606.75
1025.715,1606.75
1026.657,1584.25
1027.600,1567.25
1028.542,1608.00
1029.484,1610.00
1030.426,1583.75
1031.368,1601.75
1032.310,1571.00
1033.251,1635.25
1034.193,1582.50
1035.135,1586.00
1036.076,1618.25
1037.017,1591.75
1037.959,1593.25
1038.900,1618.50
1039.843,1588.50
1040.784,1649.50
1041.725,1624.75
1042.665,1625.25
1043.606,1633.50
1044.547,1565.00
1045.487,1621.25
1046.427,1663.75
1047.368,1633.75
1048.308,1605.50
1049.248,1610.50
1050.188,1544.00
1051.128,1580.75
1052.067,1650.00
1053.007,1567.50
1053.947,1655.50
1054.886,1633.75
1055.827,1583.50
1056.766,1607.75
1057.706,1587.75
1058.645,1609.50
1059.584,1595.50
1060.522,1671.50
1061.461,1635.25
1062.400,1655.00
1063.338,1612.50
1064.277,1623.25
1065.215,1653.75
1066.154,1636.75
1067.092,1650.25
1068.030,1664.25
1068.968,1629.00
1069.906,1619.00
1070.843,1616.00
1071.781,1658.00
1072.720,1656.00
1073.658,1650.00
1074.595,1645.75
1075.533,1641.50
1076.470,1675.50
1077.407,1697.25
1078.344,1695.25
1079.281,1658.00
1080.217,1697.50
1081.154,1678.50
1082.091,1684.00
1083.027,1698.00
1083.964,1655.50
1084.900,1688.75
1085.836,1683.50
1086.772,1649.50
1087.708,1680.50
1088.644,1693.75
1089.580,1705.75
1090.515,1656.25
1091.451,1676.50
1092.388,1700.75
1093.324,1677.75
1094.259,1660.00
1095.194,1710.75
1096.129,1651.25
1097.064,1672.00
1097.999,1653.50
1098.934,1644.75
1099.869,1650.00
1100.803,1674.25
1101.738,1652.50
1102.672,1651.50
1103.607,1648.75
1104.541,1648.50
1105.475,1648.00
1106.409,1655.75
1107.343,1616.50
1108.277,1612.25
1109.210,1667.75
1110.144,1637.50
1111.078,1642.25
1112.011,1583.50
1112.944,1619.75
1113.878,1609.00
1114.811,1609.00
1115.744,1624.00
1116.678,1653.75
1117.611,1608.00
1118.544,1608.25
1119.477,1624.50
1120.409,1595.00
1121.342,1568.25
1122.274,1534.25
1123.206,1588.00
1124.138,1533.50
1125.070,1578.75
1126.002,1563.00
1126.934,1577.25
1127.866,1563.75
1128.798,1562.00
1129.729,1556.00
1130.661,1510.25
1131.592,1496.75
1132.523,1486.25
1133.454,1541.25
1134.385,1524.50
1135.317,1500.25
1136.247,1509.50
1137.178,1527.50
1138.109,1490.75
1139.039,1497.50
1139.970,1519.25
1140.900,1493.75
1141.831,1500.25
1142.761,1455.75
1143.691,1480.25
1144.621,1466.00
1145.551,1514.50
1146.480,1470.75
1147.410,1498.00
1148.340,1473.25
1149.269,1495.75
1150.199,1459.75
1151.128,1478.00
1152.057,1493.25
1152.979,1474.75
1153.898,1478.25
1154.819,1416.00
1155.739,1463.50
1156.658,1455.00
1157.579,1457.00
1158.498,1416.25
1159.419,1473.50
1160.338,1494.50
1161.256,1417.50
1162.177,1462.50
1163.095,1419.25
1164.016,1465.75
1164.934,1431.25
1165.852,1436.00
1166.772,1437.50
1167.690,1408.75
1168.610,1442.50
1169.528,1420.25
1170.446,1434.75
1171.365,1425.25
1172.283,1381.00
1173.202,1468.50
1174.120,1445.75
1175.037,1401.75
1175.956,1401.75
1176.873,1422.50
1177.792,1441.75
1178.709,1413.75
1179.626,1403.00
1180.544,1393.25
1181.461,1389.50
1182.379,1376.00
1183.296,1430.25
1184.212,1391.00
1185.130,1395.50
1186.046,1384.00
1186.962,1381.75
1187.880,1407.25
1188.796,1396.00
1189.714,1405.25
1190.629,1385.50
1191.545,1380.50
1192.462,1363.50
1193.378,1371.75
1194.295,1367.75
1195.210,1355.50
1196.125,1405.75
1197.042,1370.50
1197.957,1375.25
1198.872,1388.00
1199.788,1378.50
1200.703,1346.00
1201.619,1377.25
1202.534,1393.00
1203.448,1362.25
1204.364,1366.25
1205.278,1380.00
1206.192,1405.00
1207.108,1376.25
1208.022,1398.50
1208.938,1365.00
1209.851,1389.50
1210.765,1363.25
1211.680,1403.00
1212.594,1390.75
1213.507,1415.75
1214.422,1391.50
1215.335,1363.75
1216.248,1341.50
1217.163,1376.25
1218.076,1400.75
1218.990,1426.25
1219.903,1427.25
1220.816,1360.50
1221.730,1381.75
1222.642,1423.75
1223.554,1380.50
1224.469,1364.50
1225.380,1370.75
1226.292,1379.25
1227.206,1337.75
1228.118,1380.75
1229.032,1367.25
1229.943,1397.50
1230.855,1397.75
1231.768,1371.25
1232.679,1388.00
1233.590,1395.50
1234.503,1377.75
1235.414,1376.75
1236.325,1373.25
1237.238,1373.75
1238.149,1465.50
1239.059,1382.25
1239.972,1359.00
1240.882,1398.25
1241.793,1324.00
1242.705,1330.25
1243.615,1376.75
1244.525,1413.25
1245.437,1411.00
1246.347,1396.75
1247.259,1394.75
1248.168,1402.75
1249.078,1377.00
1249.989,1410.00
1250.899,1406.00
1251.808,1383.75
1252.719,1410.50
1253.628,1351.75
1254.537,1374.00
1255.448,1394.50
1256.357,1349.25
1257.266,1416.25
1258.176,1348.25
1259.085,1357.00
1259.993,1386.50
1260.904,1426.25
1261.812,1379.25
1262.720,1378.00
1263.630,1410.50
1264.538,1435.25
1265.446,1340.25
1266.356,1412.25
1267.263,1395.50
1268.171,1381.25
1269.080,1422.00
1269.988,1419.75
1270.895,1390.50
1271.804,1399.50
1272.711,1400.75
1273.619,1376.50
1274.527,1335.75
1275.434,1376.25
1276.341,1390.25
1277.248,1420.25
1278.156,1388.25
1279.063,1362.00
1279.969,1408.00
1280.877,1367.00
1281.783,1396.00
1282.690,1391.00
1283.598,1352.75
1284.503,1366.75
1285.409,1371.00
1286.317,1365.75
1287.223,1345.50
1288.128,1403.25
1289.036,1356.00
1289.941,1351.00
1290.846,1361.00
1291.751,1322.50
1292.658,1364.25
1293.563,1367.50
1294.468,1350.50
1295.375,1369.00
1296.280,1367.00
1297.184,1357.75
1298.091,1352.75
1298.995,1376.25
1299.900,1335.50
1300.806,1330.50
1301.710,1318.25
1302.614,1361.50
1303.518,1364.00
1304.424,1352.25
1305.327,1315.50
1306.231,1293.25
1307.137,1372.50
1308.040,1366.50
1308.943,1321.00
1309.847,1357.00
1310.752,1361.75
1311.655,1316.00
1312.558,1279.00
1313.463,1286.25
1314.366,1333.50
1315.269,1373.75
1316.171,1283.25
1317.076,1273.50
1317.978,1311.25
1318.881,1312.25
1319.785,1323.25
1320.687,1276.50
1321.589,1246.50
1322.491,1266.25
