RamanScope Measure Spectrum Data V3.72

<< MEASURE CONDITION >>
Exposure Type,Aver
Exposure Time [sec],15
Exposure Count,4
Measure Time,2023/07/15 15:17:54
Data Name,""
Data Comment,""
Rayleigh Wave[nm],532.0

<< SAMPLE SPECTRUM >>
Wave[dcm-1],No134
146.591,521.00
147.626,593.25
148.664,733.00
149.699,780.75
150.737,905.50
151.772,994.50
152.809,1076.50
153.846,1167.00
154.881,1235.00
155.918,1293.25
156.953,1387.00
157.989,1426.50
159.026,1472.75
160.060,1510.50
161.096,1534.75
162.130,1558.00
163.167,1571.50
164.200,1706.00
165.236,1694.75
166.272,1668.25
167.305,1691.75
168.341,1795.25
169.374,1784.25
170.409,1825.00
171.445,1823.75
172.477,1889.75
173.512,1872.25
174.545,1942.25
175.580,1929.00
176.614,1941.75
177.647,1949.25
178.681,2030.50
179.713,2026.25
180.747,2003.25
181.781,2015.75
182.813,2024.75
183.847,2018.25
184.878,2056.00
185.912,2038.75
186.945,2132.50
187.976,2127.00
189.010,2203.75
190.043,2178.50
191.073,2239.25
192.106,2234.50
193.137,2246.75
194.170,2345.00
195.202,2391.75
196.232,2443.25
197.265,2515.75
198.297,2604.50
199.327,2636.50
200.359,2731.00
201.388,2778.50
202.420,2920.25
203.452,3039.25
204.481,3214.00
205.512,3367.50
206.544,3461.00
207.573,3721.25
208.604,3872.75
209.635,4162.25
210.663,4427.25
211.694,4719.00
212.725,4951.75
213.753,5271.25
214.783,5567.75
215.813,5766.75
216.841,5939.50
217.871,6049.25
218.899,6225.00
219.929,6109.00
220.959,5957.00
221.986,5765.75
223.016,5511.25
224.045,5308.50
225.072,5003.75
226.101,4708.25
227.130,4465.00
228.157,4186.00
229.185,3965.00
230.214,3863.00
231.241,3650.00
232.269,3542.00
233.297,3460.75
234.323,3383.75
235.351,3252.25
236.379,3239.00
237.407,3158.75
238.433,3117.50
239.460,3085.75
240.488,3095.50
241.513,3027.25
242.540,3085.75
243.568,3062.25
244.592,3080.25
245.619,3039.25
246.646,3058.75
247.671,3021.00
248.697,3096.50
249.724,3071.25
250.748,3068.75
251.774,3081.25
252.801,3105.75
253.827,3191.25
254.850,3184.25
255.876,3234.75
256.902,3303.75
257.925,3316.25
258.951,3415.00
259.976,3499.00
260.999,3523.00
262.024,3620.00
263.049,3713.75
264.074,3769.50
265.097,3903.75
266.122,3953.75
267.146,4056.75
268.168,4075.00
269.193,4196.00
270.217,4251.50
271.241,4360.75
272.263,4379.25
273.287,4492.50
274.311,4583.75
275.332,4559.50
276.356,4597.25
277.379,4599.50
278.402,4603.75
279.424,4572.50
280.447,4590.75
281.470,4489.50
282.492,4392.75
283.513,4349.50
284.536,4270.50
285.558,4187.75
286.581,4130.50
287.601,3975.50
288.623,3904.50
289.645,3837.00
290.665,3733.25
291.687,3619.75
292.709,3506.75
293.730,3475.25
294.750,3335.25
295.771,3229.25
296.792,3138.00
297.813,3093.50
298.832,2998.25
299.853,2919.25
300.874,2861.00
301.895,2818.50
302.913,2693.75
303.934,2667.75
304.954,2589.00
305.975,2559.50
306.993,2530.75
308.013,2437.25
309.033,2421.00
310.052,2348.25
311.072,2336.50
312.090,2328.50
313.109,2264.75
314.129,2248.50
315.148,2229.50
316.165,2191.50
317.184,2159.75
318.203,2187.75
319.222,2109.25
320.238,2078.50
321.257,2124.00
322.275,2102.25
323.294,2100.00
324.312,2071.75
325.328,1969.50
326.346,2038.50
327.364,2025.75
328.382,2003.75
329.397,1934.75
330.415,1985.75
331.432,2009.25
332.450,1931.00
333.467,1975.00
334.482,1946.25
335.499,1899.25
336.516,1970.50
337.533,1932.25
338.547,1925.50
339.564,1882.00
340.580,1936.25
341.597,1921.00
342.613,1937.75
343.627,1899.50
344.643,1899.25
345.659,1912.25
346.675,1898.50
347.690,1940.00
348.704,1920.75
349.719,1888.75
350.735,1882.00
351.750,1895.75
352.765,1905.50
353.778,1929.25
354.793,1928.50
355.808,1888.25
356.822,1934.00
357.837,1943.50
358.851,1942.75
359.864,1952.75
360.878,1994.25
361.892,1954.75
362.906,1986.50
363.920,1997.75
364.932,2005.75
365.945,1970.75
366.959,1994.75
367.972,2029.50
368.986,2059.25
369.999,2010.00
371.010,2062.25
372.023,2090.25
373.036,2068.00
374.049,2081.50
375.061,2122.00
376.072,2160.00
377.084,2089.25
378.097,2146.50
379.109,2194.25
380.121,2184.25
381.133,2198.25
382.143,2177.75
383.155,2162.25
384.166,2207.50
385.178,2248.50
386.189,2199.00
387.201,2202.25
388.212,2208.00
389.221,2187.75
390.232,2201.50
391.243,2172.25
392.254,2222.00
393.264,2202.00
394.275,2173.50
395.283,2149.50
396.294,2148.75
397.304,2113.25
398.314,2119.50
399.324,2093.25
400.334,2067.75
401.344,2016.00
402.351,2010.00
403.361,1996.25
404.370,1962.25
405.380,1957.25
406.389,1935.50
407.398,1941.50
408.407,1923.50
409.414,1361.00
410.423,1883.00
411.431,1840.50
412.440,1805.75
413.448,1850.50
414.457,1827.75
415.465,1764.25
416.471,1808.25
417.479,1781.75
418.487,1772.75
419.495,1808.25
420.503,1754.25
421.510,1744.50
422.518,1724.00
423.525,1721.25
424.530,1732.25
425.537,1696.75
426.544,1683.75
427.551,1722.25
428.558,1695.50
429.565,1629.00
430.571,1643.00
431.578,1618.00
432.582,1643.50
433.588,1706.50
434.595,1639.00
435.601,1653.50
436.607,1647.00
437.612,1625.75
438.618,1670.50
439.624,1658.75
440.627,1682.50
441.633,1646.25
442.638,1647.00
443.643,1641.25
444.648,1640.00
445.653,1687.75
446.658,1666.25
447.663,1622.50
448.667,1672.00
449.672,1645.50
450.674,1681.25
451.678,1624.25
452.682,1689.75
453.687,1653.75
454.690,1664.25
455.694,1656.25
456.698,1661.25
457.702,1686.25
458.705,1673.75
459.709,1708.25
460.710,1682.25
461.713,1671.75
462.716,1697.50
463.719,1684.25
464.722,1672.00
465.725,1710.00
466.727,1678.00
467.730,1730.50
468.732,1737.25
469.735,1716.00
470.737,1746.75
471.737,1709.50
472.739,1736.50
473.741,1707.25
474.742,1748.00
475.744,1758.75
476.746,1698.50
477.747,1755.75
478.748,1751.00
479.750,1711.75
480.751,1750.00
481.752,1706.25
482.753,1740.00
483.751,1817.25
484.752,1755.00
485.753,1738.25
486.753,1783.00
487.753,1726.50
488.754,1692.00
489.754,1699.50
490.754,1730.50
491.754,1736.50
492.754,1731.00
493.753,1749.75
494.753,1735.50
495.752,1719.75
496.752,1712.75
497.749,1731.00
498.748,1718.00
499.747,1690.75
500.746,1713.75
501.745,1731.50
502.744,1716.50
503.742,1684.75
504.741,1677.25
505.739,1681.50
506.737,1679.00
507.735,1686.75
508.734,1756.75
509.732,1663.00
510.729,1665.50
511.727,1661.25
512.725,1688.50
513.720,1711.00
514.718,1659.25
515.715,1603.00
516.712,1599.50
517.709,1670.25
518.706,1595.25
519.703,1674.00
520.700,1676.00
521.696,1594.50
522.693,1667.00
523.689,1719.00
524.686,1685.25
525.682,1645.25
526.678,1702.50
527.674,1638.75
528.670,1633.00
529.666,1632.25
530.661,1647.25
531.657,1636.00
532.652,1641.50
533.648,1653.50
534.641,1620.00
535.636,1624.00
536.631,1647.25
537.626,1668.50
538.621,1699.50
539.616,1659.50
540.610,1651.50
541.605,1663.00
542.599,1676.25
543.593,1667.25
544.587,1716.50
545.581,1680.75
546.575,1686.75
547.569,1706.00
548.563,1667.25
549.557,1721.00
550.550,1695.25
551.543,1678.25
552.537,1670.25
553.530,1704.75
554.523,1719.00
555.516,1640.50
556.509,1692.75
557.502,1706.50
558.494,1732.00
559.487,1712.75
560.479,1726.50
561.472,1736.25
562.464,1726.75
563.456,1719.50
564.448,1729.75
565.440,1726.25
566.432,1741.00
567.423,1746.00
568.415,1740.50
569.404,1764.50
570.396,1797.25
571.387,1800.25
572.378,1781.50
573.369,1782.00
574.360,1813.75
575.351,1830.75
576.341,1808.25
577.332,1785.00
578.323,1820.50
579.313,1834.25
580.303,1857.50
581.293,1835.75
582.283,1853.75
583.273,1857.50
584.263,1814.00
585.253,1841.25
586.243,1837.75
587.232,1874.25
588.222,1809.75
589.211,1826.50
590.200,1843.00
591.189,1818.75
592.178,1731.50
593.167,1779.50
594.156,1783.25
595.145,1825.75
596.133,1801.25
597.122,1728.25
598.110,1718.75
599.098,1758.50
600.086,1729.00
601.074,1683.00
602.062,1751.50
603.050,1757.00
604.038,1696.75
605.025,1687.00
606.013,1717.75
607.000,1723.50
607.987,1657.50
608.975,1663.25
609.962,1659.75
610.949,1654.75
611.936,1648.50
612.922,1596.00
613.909,1635.25
614.895,1609.00
615.882,1611.75
616.868,1619.75
617.854,1609.50
618.841,1613.50
619.826,1593.50
620.812,1573.25
621.798,1609.75
622.784,1560.75
623.769,1563.75
624.755,1543.25
625.740,1546.75
626.725,1534.75
627.711,1534.25
628.698,1570.00
629.683,1540.25
630.667,1496.50
631.652,1477.00
632.637,1496.25
633.621,1527.75
634.606,1489.25
635.590,1473.50
636.574,1486.75
637.558,1496.25
638.542,1469.25
639.526,1417.25
640.510,1440.00
641.493,1409.00
642.477,1498.75
643.460,1441.50
644.444,1448.50
645.427,1407.50
646.410,1410.75
647.393,1444.25
648.376,1411.25
649.359,1402.50
650.341,1365.50
651.324,1379.00
652.307,1398.25
653.289,1365.00
654.271,1384.75
655.253,1382.75
656.235,1335.00
657.217,1350.00
658.199,1367.00
659.181,1335.25
660.163,1349.00
661.144,1320.75
662.126,1357.00
663.107,1381.25
664.088,1371.00
665.069,1307.00
666.050,1302.25
667.033,1344.25
668.014,1330.50
668.995,1277.75
669.975,1338.25
670.956,1299.25
671.936,1290.00
672.916,1253.50
673.896,1295.75
674.876,1276.00
675.856,1267.00
676.836,1291.50
677.816,1255.00
678.795,1270.75
679.775,1224.25
680.754,1282.00
681.734,1267.25
682.713,1177.25
683.692,1240.25
684.671,1253.25
685.650,1262.50
686.629,1207.25
687.607,1284.50
688.586,1237.50
689.564,1214.75
690.543,1227.25
691.523,1209.25
692.501,1222.25
693.479,1255.00
694.457,1205.00
695.435,1204.00
696.413,1229.00
697.390,1195.00
698.368,1176.25
699.345,1237.50
700.322,1219.00
701.300,1201.75
702.277,1202.50
703.254,1168.75
704.231,1120.00
705.207,1133.50
706.184,1177.00
707.161,1167.75
708.137,1145.75
709.113,1158.25
710.090,1131.25
711.068,1102.50
712.044,1172.25
713.020,1157.25
713.996,1141.25
714.971,1203.00
715.947,1090.50
716.922,1143.00
717.898,1127.00
718.873,1098.00
719.848,1134.50
720.823,1123.00
721.798,1113.50
722.773,1162.75
723.748,1154.50
724.723,1139.50
725.697,1115.50
726.672,1163.00
727.646,1145.75
728.622,1069.50
729.596,1119.50
730.570,1076.75
731.544,1084.25
732.518,1095.75
733.492,1059.50
734.466,1094.00
735.439,1066.25
736.413,1143.75
737.386,1144.25
738.359,1078.00
739.332,1099.25
740.305,1099.25
741.278,1050.00
742.251,1102.25
743.224,1107.75
744.196,1106.00
745.171,1075.75
746.143,1157.25
747.115,1089.75
748.087,1078.25
749.059,1121.75
750.031,1067.25
751.003,1034.75
751.975,1070.00
752.947,1087.25
753.918,1120.25
754.890,1103.75
755.861,1060.00
756.832,1003.50
757.803,1080.25
758.774,1076.00
759.747,1051.25
760.718,1035.00
761.689,1086.25
762.659,1052.25
763.630,1047.75
764.600,1038.00
765.570,1069.75
766.540,1039.00
767.510,1053.75
768.480,1029.75
769.450,1079.25
770.420,1051.00
771.390,1054.50
772.359,1072.00
773.329,1055.75
774.300,1089.75
775.269,1056.75
776.238,1005.75
777.207,1012.50
778.176,1066.00
779.145,1001.00
780.114,1045.00
781.083,1024.50
782.051,1029.25
783.019,989.50
783.988,1048.25
784.956,1043.75
785.924,1006.75
786.894,1037.50
787.862,1046.50
788.830,1018.75
789.797,1034.75
790.765,1027.00
791.732,1048.50
792.700,1018.50
793.667,1023.25
794.634,1026.00
795.601,1034.00
796.568,959.75
797.535,973.75
798.502,1016.75
799.468,977.50
800.437,1031.50
801.403,1015.25
802.370,999.50
803.336,938.00
804.302,971.25
805.268,966.00
806.234,1043.25
807.200,966.25
808.166,1029.75
809.131,968.00
810.097,997.50
811.062,988.75
812.027,975.00
812.994,987.75
813.960,924.50
814.925,948.00
815.889,977.25
816.854,927.50
817.819,979.75
818.783,942.75
819.748,1002.50
820.712,951.00
821.677,916.50
822.641,936.25
823.605,911.00
824.571,991.00
825.534,947.00
826.498,972.50
827.462,994.00
828.425,931.25
829.389,945.50
830.352,943.25
831.315,956.50
832.279,953.25
833.242,948.75
834.204,964.50
835.167,957.00
836.132,967.25
837.095,973.25
838.057,949.50
839.020,897.75
839.982,900.50
840.944,942.00
841.906,986.00
842.868,882.25
843.830,965.50
844.792,953.50
845.753,945.75
846.715,928.75
847.679,970.00
848.640,911.75
849.601,937.75
850.562,925.00
851.523,912.25
852.484,939.50
853.445,914.00
854.406,925.00
855.367,955.50
856.327,897.75
857.288,926.25
858.248,947.00
859.210,942.75
860.170,922.00
861.130,923.75
862.090,910.25
863.050,936.75
864.010,923.75
864.969,928.75
865.929,874.75
866.888,858.00
867.848,869.25
868.807,902.25
869.766,923.25
870.727,882.00
871.686,914.75
872.645,874.00
873.604,932.25
874.562,940.25
875.521,900.25
876.479,891.75
877.437,898.75
878.396,924.75
879.354,845.25
880.312,901.50
881.270,903.50
882.229,902.75
883.187,861.75
884.145,857.50
885.102,879.50
886.059,893.00
887.017,888.25
887.974,877.75
888.931,897.25
889.888,914.50
890.845,903.75
891.802,876.50
892.758,867.25
893.717,866.00
894.673,920.50
895.630,916.00
896.586,919.50
897.542,914.75
898.498,916.75
899.454,899.75
900.410,924.00
901.366,880.50
902.321,855.00
903.277,869.25
904.232,892.00
905.189,885.50
906.145,932.00
907.100,890.75
908.055,880.00
909.010,879.50
909.965,920.25
910.919,936.25
911.874,868.25
912.828,843.50
913.783,867.25
914.737,880.00
915.693,917.00
916.648,864.50
917.602,871.50
918.555,817.00
919.509,893.50
920.463,883.50
921.417,925.25
922.370,890.25
923.324,867.75
924.277,892.25
925.230,869.75
926.183,889.25
927.138,868.00
928.091,883.25
929.044,881.25
929.996,880.00
930.949,849.00
931.902,884.75
932.854,907.50
933.806,906.75
934.758,846.50
935.711,860.25
936.663,851.25
937.614,854.25
938.568,880.75
939.520,856.75
940.471,871.25
941.423,857.25
942.374,864.25
943.326,905.75
944.277,856.75
945.228,869.50
946.179,863.50
947.130,845.00
948.080,881.25
949.031,883.25
949.984,858.75
950.934,841.25
951.884,904.50
952.835,837.00
953.785,853.75
954.735,872.00
955.685,805.75
956.635,893.75
957.585,884.75
958.534,847.75
959.484,832.50
960.433,816.50
961.383,858.00
962.334,892.75
963.283,868.25
964.232,829.75
965.181,904.50
966.130,837.50
967.079,849.50
968.027,868.75
968.976,843.00
969.924,849.00
970.873,846.75
971.821,872.25
972.769,831.75
973.719,816.50
974.667,869.50
975.615,902.75
976.562,872.00
977.510,871.25
978.458,864.75
979.405,857.25
980.352,833.00
981.300,894.00
982.247,861.50
983.194,878.00
984.141,845.50
985.088,919.50
986.036,862.75
986.983,889.75
987.930,822.75
988.876,862.75
989.822,845.75
990.769,891.75
991.715,864.50
992.661,899.75
993.607,854.25
994.553,826.75
995.498,871.50
996.444,858.50
997.389,908.75
998.337,864.00
999.282,822.75
1000.227,869.75
1001.173,907.25
1002.118,889.00
1003.062,849.50
1004.007,864.75
1004.952,887.00
1005.897,843.00
1006.841,851.75
1007.786,859.50
1008.730,871.00
1009.674,844.00
1010.618,894.75
1011.564,867.75
1012.508,871.75
1013.452,878.50
1014.396,856.50
1015.339,867.75
1016.283,914.25
1017.226,885.25
1018.170,880.50
1019.113,868.75
1020.056,855.25
1020.999,875.25
1021.942,894.25
1022.885,880.50
1023.828,805.50
1024.770,889.00
1025.715,879.00
1026.657,890.00
1027.600,877.25
1028.542,907.50
1029.484,918.00
1030.426,913.00
1031.368,906.50
1032.310,924.00
1033.251,862.00
1034.193,870.25
1035.135,872.75
1036.076,879.25
1037.017,879.25
1037.959,875.75
1038.900,908.50
1039.843,873.00
1040.784,865.50
1041.725,883.00
1042.665,901.75
1043.606,897.75
1044.547,905.25
1045.487,862.50
1046.427,893.25
1047.368,903.75
1048.308,904.00
1049.248,873.25
1050.188,925.25
1051.128,898.25
1052.067,890.25
1053.007,918.25
1053.947,893.75
1054.886,905.25
1055.827,930.25
1056.766,899.25
1057.706,930.00
1058.645,879.00
1059.584,909.50
1060.522,912.75
1061.461,880.25
1062.400,943.00
1063.338,922.75
1064.277,901.75
1065.215,921.00
1066.154,977.50
1067.092,946.50
1068.030,947.75
1068.968,868.00
1069.906,883.75
1070.843,912.50
1071.781,965.50
1072.720,943.50
1073.658,938.75
1074.595,900.25
1075.533,912.75
1076.470,930.50
1077.407,925.50
1078.344,924.00
1079.281,920.25
1080.217,943.75
1081.154,959.50
1082.091,919.25
1083.027,937.75
1083.964,926.25
1084.900,944.00
1085.836,945.25
1086.772,891.00
1087.708,934.75
1088.644,950.75
1089.580,917.50
1090.515,950.75
1091.451,889.50
1092.388,952.00
1093.324,936.00
1094.259,935.00
1095.194,912.50
1096.129,966.50
1097.064,924.75
1097.999,925.25
1098.934,912.25
1099.869,867.25
1100.803,901.75
1101.738,924.25
1102.672,921.00
1103.607,935.00
1104.541,933.75
1105.475,908.75
1106.409,990.75
1107.343,943.50
1108.277,940.25
1109.210,937.00
1110.144,951.00
1111.078,944.00
1112.011,917.75
1112.944,906.00
1113.878,948.75
1114.811,934.25
1115.744,919.50
1116.678,871.25
1117.611,961.25
1118.544,931.00
1119.477,914.25
1120.409,944.00
1121.342,916.25
1122.274,909.00
1123.206,914.75
1124.138,903.00
1125.070,896.25
1126.002,914.75
1126.934,894.50
1127.866,889.00
1128.798,921.50
1129.729,898.75
1130.661,929.00
1131.592,911.25
1132.523,933.75
1133.454,885.50
1134.385,889.25
1135.317,913.50
1136.247,931.50
1137.178,900.00
1138.109,910.75
1139.039,886.00
1139.970,902.25
1140.900,875.50
1141.831,901.00
1142.761,903.00
1143.691,985.50
1144.621,899.75
1145.551,935.00
1146.480,942.25
1147.410,903.25
1148.340,896.25
1149.269,948.50
1150.199,883.25
1151.128,922.75
1152.057,931.00
1152.979,900.50
1153.898,878.25
1154.819,881.75
1155.739,903.25
1156.658,954.75
1157.579,932.50
1158.498,914.25
1159.419,916.25
1160.338,950.00
1161.256,920.00
1162.177,891.75
1163.095,882.25
1164.016,907.00
1164.934,892.25
1165.852,889.25
1166.772,914.00
1167.690,933.00
1168.610,913.25
1169.528,916.75
1170.446,956.25
1171.365,927.00
1172.283,947.25
1173.202,953.50
1174.120,957.75
1175.037,924.25
1175.956,929.00
1176.873,892.00
1177.792,922.50
1178.709,950.75
1179.626,921.75
1180.544,970.00
1181.461,930.50
1182.379,925.50
1183.296,940.00
1184.212,926.00
1185.130,959.25
1186.046,918.25
1186.962,919.00
1187.880,957.50
1188.796,904.00
1189.714,945.00
1190.629,931.50
1191.545,969.25
1192.462,933.75
1193.378,906.75
1194.295,984.25
1195.210,955.50
1196.125,940.75
1197.042,954.00
1197.957,899.25
1198.872,983.25
1199.788,937.50
1200.703,878.25
1201.619,911.50
1202.534,932.25
1203.448,945.25
1204.364,947.00
1205.278,959.25
1206.192,950.75
1207.108,931.00
1208.022,955.00
1208.938,924.50
1209.851,960.00
1210.765,945.00
1211.680,964.50
1212.594,989.50
1213.507,964.50
1214.422,1008.75
1215.335,974.75
1216.248,967.75
1217.163,957.50
1218.076,971.75
1218.990,967.00
1219.903,950.50
1220.816,948.50
1221.730,992.25
1222.642,995.00
1223.554,957.75
1224.469,995.75
1225.380,1006.75
1226.292,1008.50
1227.206,971.75
1228.118,1006.00
1229.032,1015.25
1229.943,1005.25
1230.855,988.50
1231.768,1030.75
1232.679,991.25
1233.590,1027.00
1234.503,1022.25
1235.414,989.25
1236.325,1005.00
1237.238,1022.50
1238.149,1049.50
1239.059,1057.75
1239.972,1050.00
1240.882,1051.75
1241.793,1011.25
1242.705,1027.50
1243.615,991.25
1244.525,1087.50
1245.437,1044.00
1246.347,1088.50
1247.259,1118.25
1248.168,1078.25
1249.078,1027.00
1249.989,1085.50
1250.899,1083.25
1251.808,1078.25
1252.719,1069.25
1253.628,1050.25
1254.537,1036.50
1255.448,1017.00
1256.357,1062.75
1257.266,1048.75
1258.176,1027.25
1259.085,1032.75
1259.993,1061.25
1260.904,1062.75
1261.812,1041.50
1262.720,1027.25
1263.630,1071.00
1264.538,1071.25
1265.446,1043.25
1266.356,1041.25
1267.263,1070.25
1268.171,1035.75
1269.080,1058.75
1269.988,1060.00
1270.895,1046.00
1271.804,1093.75
1272.711,1070.00
1273.619,1021.25
1274.527,1063.50
1275.434,1029.75
1276.341,1034.50
1277.248,1075.00
1278.156,1086.75
1279.063,1059.75
1279.969,1019.75
1280.877,1016.50
1281.783,1061.50
1282.690,1067.50
1283.598,1081.25
1284.503,1043.00
1285.409,1039.75
1286.317,1058.75
1287.223,1008.75
1288.128,1020.00
1289.036,1031.50
1289.941,1007.00
1290.846,1022.75
1291.751,1022.25
1292.658,985.50
1293.563,1012.75
1294.468,1024.50
1295.375,1009.00
1296.280,1028.00
1297.184,994.50
1298.091,1003.25
1298.995,998.50
1299.900,1003.50
1300.806,988.50
1301.710,1015.75
1302.614,1023.25
1303.518,992.50
1304.424,1012.75
1305.327,1006.75
1306.231,966.25
1307.137,960.75
1308.040,938.50
1308.943,1003.00
1309.847,987.00
1310.752,959.00
1311.655,930.00
1312.558,915.50
1313.463,947.25
1314.366,939.75
1315.269,989.50
1316.171,944.50
1317.076,942.75
1317.978,920.00
1318.881,921.00
1319.785,952.25
1320.687,905.75
1321.589,882.00
1322.491,918.75
1323.395,910.25
1324.297,942.75
1325.198,928.50
1326.102,928.25
1327.004,908.00
1327.905,888.25
1328.806,895.00
1329.709,905.25
1330.611,885.25
1331.512,924.50
1332.413,868.25
1333.316,895.25
1334.216,866.50
1335.117,885.75
1336.020,870.50
1336.920,856.75
1337.821,847.75
1338.721,822.50
1339.623,827.00
1340.523,863.75
1341.423,849.50
1342.323,824.75
1343.225,823.50
1344.125,866.50
1345.025,841.00
1345.924,837.75
1346.826,805.75
1347.725,825.50
1348.624,805.00
1349.524,839.25
