RamanScope Measure Spectrum Data V3.72

<< MEASURE CONDITION >>
Exposure Type,Aver
Exposure Time [sec],15
Exposure Count,4
Measure Time,2023/07/15 16:23:43
Data Name,""
Data Comment,""
Rayleigh Wave[nm],532.0

<< SAMPLE SPECTRUM >>
Wave[dcm-1],No169
146.591,876.00
147.626,1034.25
148.664,1207.75
149.699,1348.75
150.737,1509.75
151.772,1736.50
152.809,1877.25
153.846,2068.50
154.881,2151.00
155.918,2285.50
156.953,2423.50
157.989,2459.75
159.026,2545.00
160.060,2578.50
161.096,2675.75
162.130,2701.50
163.167,2728.25
164.200,2791.50
165.236,2849.75
166.272,2852.50
167.305,2878.75
168.341,2984.75
169.374,3008.75
170.409,3046.25
171.445,3107.75
172.477,3158.75
173.512,3148.50
174.545,3207.00
175.580,3219.00
176.614,3215.75
177.647,3270.50
178.681,3246.75
179.713,3203.25
180.747,3224.50
181.781,3221.75
182.813,3281.25
183.847,3244.25
184.878,3265.75
185.912,3244.75
186.945,3290.00
187.976,3290.25
189.010,3309.00
190.043,3320.00
191.073,3326.00
192.106,3385.50
193.137,3427.75
194.170,3462.75
195.202,3530.75
196.232,3544.00
197.265,3571.50
198.297,3637.00
199.327,3721.50
200.359,3753.00
201.388,3798.50
202.420,3910.25
203.452,3991.50
204.481,4055.25
205.512,4129.00
206.544,4290.50
207.573,4383.00
208.604,4517.25
209.635,4640.25
210.663,4797.25
211.694,4915.50
212.725,5086.25
213.753,5294.00
214.783,5431.50
215.813,5498.25
216.841,5538.50
217.871,5536.00
218.899,5585.50
219.929,5579.25
220.959,5505.75
221.986,5365.50
223.016,5216.25
224.045,5148.25
225.072,5016.00
226.101,4868.25
227.130,4759.75
228.157,4669.25
229.185,4512.75
230.214,4505.00
231.241,4364.25
232.269,4291.75
233.297,4268.00
234.323,4229.50
235.351,4133.50
236.379,4164.25
237.407,4108.00
238.433,4065.25
239.460,4080.75
240.488,4114.50
241.513,4146.50
242.540,4147.25
243.568,4239.50
244.592,4257.00
245.619,4278.50
246.646,4251.25
247.671,4160.50
248.697,4177.25
249.724,4180.50
250.748,4093.50
251.774,4144.00
252.801,4103.25
253.827,4113.75
254.850,4099.25
255.876,4109.75
256.902,4127.50
257.925,4164.50
258.951,4151.25
259.976,4221.00
260.999,4241.00
262.024,4245.50
263.049,4268.50
264.074,4300.75
265.097,4356.25
266.122,4335.50
267.146,4380.75
268.168,4487.00
269.193,4546.00
270.217,4552.25
271.241,4583.50
272.263,4652.25
273.287,4684.75
274.311,4702.25
275.332,4750.75
276.356,4760.75
277.379,4761.75
278.402,4751.50
279.424,4678.00
280.447,4667.50
281.470,4603.25
282.492,4558.00
283.513,4499.00
284.536,4474.50
285.558,4398.50
286.581,4362.00
287.601,4308.50
288.623,4291.00
289.645,4218.25
290.665,4146.75
291.687,3957.50
292.709,3994.50
293.730,3924.75
294.750,3921.50
295.771,3861.75
296.792,3778.25
297.813,3715.75
298.832,3692.00
299.853,3642.50
300.874,3571.00
301.895,3533.75
302.913,3522.25
303.934,3428.50
304.954,3458.25
305.975,3396.75
306.993,3407.75
308.013,3305.75
309.033,3323.75
310.052,3282.25
311.072,3270.75
312.090,3244.25
313.109,3251.25
314.129,3167.75
315.148,3213.50
316.165,3153.00
317.184,3176.25
318.203,3113.00
319.222,3125.25
320.238,3100.75
321.257,3067.25
322.275,3072.00
323.294,3072.50
324.312,3060.25
325.328,3028.00
326.346,3064.00
327.364,3036.50
328.382,3001.25
329.397,2986.00
330.415,2965.25
331.432,3009.50
332.450,3019.25
333.467,2967.00
334.482,2940.25
335.499,2933.00
336.516,2898.25
337.533,2927.00
338.547,2939.75
339.564,2907.00
340.580,2899.50
341.597,2911.75
342.613,2903.25
343.627,2906.00
344.643,2877.50
345.659,2821.50
346.675,2880.25
347.690,2883.50
348.704,2876.50
349.719,2887.50
350.735,2829.50
351.750,2889.50
352.765,2901.50
353.778,2860.75
354.793,2893.50
355.808,2848.25
356.822,2828.25
357.837,2889.75
358.851,2860.75
359.864,2825.00
360.878,2911.25
361.892,2852.00
362.906,2894.00
363.920,2878.00
364.932,2869.00
365.945,2922.50
366.959,2897.75
367.972,2907.25
368.986,2876.50
369.999,2922.75
371.010,2963.75
372.023,2913.25
373.036,2894.25
374.049,2990.75
375.061,2948.75
376.072,2969.75
377.084,2992.75
378.097,3004.75
379.109,2991.50
380.121,3043.75
381.133,2963.50
382.143,2978.25
383.155,3033.00
384.166,3045.25
385.178,3019.25
386.189,3038.75
387.201,3007.75
388.212,3077.25
389.221,2999.75
390.232,2994.75
391.243,2991.25
392.254,2987.00
393.264,2983.00
394.275,2951.25
395.283,2933.25
396.294,2896.75
397.304,2987.50
398.314,2969.50
399.324,2951.00
400.334,2903.25
401.344,2889.75
402.351,2915.75
403.361,2895.00
404.370,2856.75
405.380,2893.00
406.389,2795.50
407.398,2785.50
408.407,2787.00
409.414,2841.25
410.423,2829.75
411.431,2822.75
412.440,2786.50
413.448,2789.50
414.457,2819.00
415.465,2774.25
416.471,2716.75
417.479,2698.00
418.487,2712.25
419.495,2706.50
420.503,2731.25
421.510,2692.00
422.518,2696.50
423.525,2729.25
424.530,2689.50
425.537,2651.25
426.544,2720.00
427.551,2642.75
428.558,2674.75
429.565,2682.25
430.571,2665.75
431.578,2656.75
432.582,2655.75
433.588,2645.75
434.595,2699.00
435.601,2610.50
436.607,2681.00
437.612,2605.00
438.618,2624.00
439.624,2654.50
440.627,2645.75
441.633,2603.25
442.638,2663.50
443.643,2590.50
444.648,2638.25
445.653,2644.75
446.658,2623.00
447.663,2630.25
448.667,2596.50
449.672,2664.50
450.674,2691.50
451.678,2697.50
452.682,2650.75
453.687,2624.75
454.690,2683.25
455.694,2664.50
456.698,2665.00
457.702,2699.00
458.705,2634.75
459.709,2674.00
460.710,2678.50
461.713,2693.25
462.716,2705.50
463.719,2668.00
464.722,2663.75
465.725,2692.75
466.727,2713.25
467.730,2633.25
468.732,2686.25
469.735,2730.00
470.737,2735.00
471.737,2714.25
472.739,2708.25
473.741,2763.00
474.742,2706.25
475.744,2749.25
476.746,2734.00
477.747,2783.00
478.748,2734.50
479.750,2727.25
480.751,2764.50
481.752,2734.50
482.753,2761.25
483.751,2757.25
484.752,2766.00
485.753,2754.25
486.753,2739.50
487.753,2745.50
488.754,2780.75
489.754,2729.25
490.754,2699.25
491.754,2754.50
492.754,2751.50
493.753,2688.00
494.753,2748.00
495.752,2698.00
496.752,2744.75
497.749,2783.75
498.748,2791.50
499.747,2751.50
500.746,2706.50
501.745,2716.50
502.744,2717.00
503.742,2749.50
504.741,2691.75
505.739,2683.50
506.737,2633.50
507.735,2724.50
508.734,2722.75
509.732,2708.50
510.729,2639.75
511.727,2656.75
512.725,2641.00
513.720,2675.00
514.718,2653.50
515.715,2617.25
516.712,2580.00
517.709,2692.50
518.706,2640.25
519.703,2598.00
520.700,2653.50
521.696,2651.50
522.693,2662.25
523.689,2682.00
524.686,2647.50
525.682,2610.75
526.678,2645.50
527.674,2633.00
528.670,2659.25
529.666,2655.25
530.661,2679.00
531.657,2628.25
532.652,2691.25
533.648,2731.75
534.641,2719.75
535.636,2694.50
536.631,2671.00
537.626,2665.75
538.621,2640.50
539.616,2659.00
540.610,2671.00
541.605,2646.50
542.599,2691.50
543.593,2682.75
544.587,2723.50
545.581,2684.00
546.575,2638.25
547.569,2665.25
548.563,2694.00
549.557,2673.75
550.550,2677.00
551.543,2674.50
552.537,2651.25
553.530,2666.75
554.523,2707.75
555.516,2674.75
556.509,2707.50
557.502,2701.00
558.494,2692.00
559.487,2672.25
560.479,2660.00
561.472,2703.50
562.464,2671.50
563.456,2646.50
564.448,2659.00
565.440,2656.50
566.432,2699.00
567.423,2669.50
568.415,2683.75
569.404,2707.50
570.396,2684.50
571.387,2668.50
572.378,2696.75
573.369,2704.00
574.360,2764.25
575.351,2744.25
576.341,2784.50
577.332,2709.00
578.323,2805.50
579.313,2751.75
580.303,2805.25
581.293,2776.50
582.283,2736.25
583.273,2741.25
584.263,2766.75
585.253,2757.25
586.243,2857.25
587.232,2784.75
588.222,2785.75
589.211,2755.75
590.200,2850.25
591.189,2816.25
592.178,2790.75
593.167,2770.00
594.156,2733.25
595.145,2832.75
596.133,2776.50
597.122,2822.00
598.110,2790.25
599.098,2822.25
600.086,2764.75
601.074,2824.25
602.062,2798.25
603.050,2737.25
604.038,2775.00
605.025,2764.00
606.013,2823.25
607.000,2760.75
607.987,2803.75
608.975,2731.50
609.962,2718.50
610.949,2744.00
611.936,2707.75
612.922,2722.75
613.909,2624.75
614.895,2686.50
615.882,2659.50
616.868,2698.00
617.854,2653.00
618.841,2644.25
619.826,2617.25
620.812,2622.50
621.798,2586.75
622.784,2577.50
623.769,2546.75
624.755,2590.50
625.740,2530.75
626.725,2547.00
627.711,2525.25
628.698,2531.75
629.683,2506.50
630.667,2437.00
631.652,2477.50
632.637,2447.75
633.621,2448.00
634.606,2396.50
635.590,2418.25
636.574,2395.75
637.558,2408.25
638.542,2410.50
639.526,2373.75
640.510,2331.25
641.493,2370.00
642.477,2332.25
643.460,2320.00
644.444,2306.75
645.427,2342.75
646.410,2301.75
647.393,2308.25
648.376,2273.00
649.359,2236.75
650.341,2258.00
651.324,2249.00
652.307,2207.00
653.289,2215.75
654.271,2224.00
655.253,2232.50
656.235,2189.75
657.217,2203.75
658.199,2212.50
659.181,2216.25
660.163,2223.50
661.144,2198.25
662.126,2163.50
663.107,2206.50
664.088,2117.00
665.069,2167.25
666.050,2160.50
667.033,2153.25
668.014,2189.25
668.995,2118.75
669.975,2071.00
670.956,2114.50
671.936,2135.00
672.916,2106.00
673.896,2125.25
674.876,2102.00
675.856,2076.00
676.836,2017.75
677.816,2014.75
678.795,2029.00
679.775,2035.25
680.754,2013.50
681.734,1965.75
682.713,1973.75
683.692,1992.75
684.671,1926.75
685.650,1957.00
686.629,1964.75
687.607,1876.75
688.586,1907.00
689.564,1878.00
690.543,1852.75
691.523,1876.75
692.501,1910.75
693.479,1899.50
694.457,1872.75
695.435,1832.75
696.413,1793.50
697.390,1818.75
698.368,1851.50
699.345,1801.50
700.322,1796.75
701.300,1803.75
702.277,1806.25
703.254,1800.25
704.231,1793.00
705.207,1766.25
706.184,1818.00
707.161,1791.25
708.137,1728.00
709.113,1725.25
710.090,1723.75
711.068,1709.25
712.044,1712.00
713.020,1690.75
713.996,1757.25
714.971,1697.25
715.947,1674.00
716.922,1701.50
717.898,1657.25
718.873,1702.25
719.848,1647.75
720.823,1696.75
721.798,1662.50
722.773,1709.25
723.748,1668.25
724.723,1659.25
725.697,1680.00
726.672,1647.50
727.646,1669.00
728.622,1631.00
729.596,1644.75
730.570,1672.00
731.544,1587.25
732.518,1574.75
733.492,1652.75
734.466,1589.00
735.439,1597.50
736.413,1585.25
737.386,1618.75
738.359,1582.25
739.332,1608.50
740.305,1587.25
741.278,1603.75
742.251,1599.25
743.224,1588.00
744.196,1558.50
745.171,1581.00
746.143,1581.00
747.115,1544.75
748.087,1559.75
749.059,1577.25
750.031,1550.25
751.003,1534.25
751.975,1512.25
752.947,1508.25
753.918,1509.00
754.890,1507.75
755.861,1564.00
756.832,1525.75
757.803,1496.50
758.774,1506.00
759.747,1556.75
760.718,1493.25
761.689,1495.25
762.659,1511.50
763.630,1466.25
764.600,1490.00
765.570,1520.25
766.540,1479.50
767.510,1478.00
768.480,1483.75
769.450,1508.50
770.420,1513.00
771.390,1455.50
772.359,1515.25
773.329,1478.25
774.300,1491.25
775.269,1448.50
776.238,1444.00
777.207,1463.50
778.176,1446.00
779.145,1441.75
780.114,1438.50
781.083,1421.25
782.051,1397.75
783.019,1449.50
783.988,1443.50
784.956,1445.50
785.924,1397.25
786.894,1399.00
787.862,1411.75
788.830,1450.75
789.797,1438.25
790.765,1399.75
791.732,1361.75
792.700,1418.00
793.667,1436.25
794.634,1381.25
795.601,1403.00
796.568,1395.00
797.535,1363.50
798.502,1327.75
799.468,1381.00
800.437,1338.50
801.403,1372.75
802.370,1315.50
803.336,1357.75
804.302,1356.25
805.268,1395.25
806.234,1366.00
807.200,1327.25
808.166,1331.75
809.131,1329.50
810.097,1358.00
811.062,1373.25
812.027,1335.25
812.994,1308.25
813.960,1326.50
814.925,1380.00
815.889,1324.00
816.854,1371.50
817.819,1274.75
818.783,1318.75
819.748,1300.50
820.712,1352.75
821.677,1333.25
822.641,1313.75
823.605,1326.25
824.571,1319.75
825.534,1309.00
826.498,1321.25
827.462,1302.00
828.425,1304.75
829.389,1302.00
830.352,1334.50
831.315,1320.00
832.279,1349.75
833.242,1301.00
834.204,1298.50
835.167,1309.50
836.132,1313.25
837.095,1302.25
838.057,1329.00
839.020,1305.75
839.982,1336.25
840.944,1300.50
841.906,1288.00
842.868,1328.50
843.830,1315.00
844.792,1281.25
845.753,1279.75
846.715,1296.75
847.679,1263.50
848.640,1320.00
849.601,1275.75
850.562,1282.75
851.523,1319.00
852.484,1315.50
853.445,1262.25
854.406,1279.00
855.367,1250.00
856.327,1267.50
857.288,1282.50
858.248,1286.50
859.210,1275.00
860.170,1303.25
861.130,1266.75
862.090,1275.00
863.050,1262.50
864.010,1265.50
864.969,1293.50
865.929,1275.50
866.888,1258.50
867.848,1296.50
868.807,1237.75
869.766,1246.75
870.727,1266.25
871.686,1252.75
872.645,1259.75
873.604,1275.50
874.562,1282.00
875.521,1260.25
876.479,1269.00
877.437,1245.75
878.396,1263.75
879.354,1241.50
880.312,1282.25
881.270,1260.25
882.229,1277.00
883.187,1269.25
884.145,1242.50
885.102,1261.25
886.059,1225.75
887.017,1252.50
887.974,1272.25
888.931,1265.25
889.888,1191.00
890.845,1206.75
891.802,1260.25
892.758,1272.25
893.717,1251.00
894.673,1244.50
895.630,1266.00
896.586,1217.75
897.542,1286.00
898.498,1199.50
899.454,1274.00
900.410,1223.50
901.366,1277.25
902.321,1240.25
903.277,1255.50
904.232,1243.50
905.189,1248.50
906.145,1225.00
907.100,1274.25
908.055,1245.50
909.010,1245.75
909.965,1270.50
910.919,1274.00
911.874,1232.00
912.828,1247.75
913.783,1241.00
914.737,1242.25
915.693,1237.50
916.648,1247.75
917.602,1192.75
918.555,1208.00
919.509,1268.75
920.463,1237.50
921.417,1279.00
922.370,1263.25
923.324,1242.50
924.277,1243.00
925.230,1258.50
926.183,1264.75
927.138,1265.50
928.091,1241.50
929.044,1268.25
929.996,1245.50
930.949,1275.75
931.902,1265.25
932.854,1237.75
933.806,1254.75
934.758,1226.25
935.711,1233.75
936.663,1282.00
937.614,1271.75
938.568,1236.00
939.520,1228.00
940.471,1233.00
941.423,1234.75
942.374,1261.00
943.326,1254.25
944.277,1202.75
945.228,1239.50
946.179,1251.00
947.130,1259.25
948.080,1229.00
949.031,1235.00
949.984,1191.00
950.934,1209.50
951.884,1196.50
952.835,1232.75
953.785,1190.50
954.735,1240.25
955.685,1228.50
956.635,1259.75
957.585,1226.00
958.534,1235.75
959.484,1191.00
960.433,1191.50
961.383,1197.50
962.334,1248.00
963.283,1202.00
964.232,1236.50
965.181,1249.25
966.130,1244.50
967.079,1176.75
968.027,1176.50
968.976,1214.50
969.924,1183.25
970.873,1203.75
971.821,1231.00
972.769,1208.75
973.719,1231.25
974.667,1228.00
975.615,1183.25
976.562,1196.50
977.510,1215.50
978.458,1203.00
979.405,1207.00
980.352,1187.75
981.300,1233.00
982.247,1235.75
983.194,1177.75
984.141,1222.50
985.088,1217.75
986.036,1222.25
986.983,1170.00
987.930,1208.75
988.876,1186.50
989.822,1249.00
990.769,1230.00
991.715,1176.50
992.661,1229.00
993.607,1216.25
994.553,1206.25
995.498,1194.50
996.444,1191.50
997.389,1227.50
998.337,1225.50
999.282,1200.75
1000.227,1220.00
1001.173,1165.00
1002.118,1206.25
1003.062,1232.00
1004.007,1194.75
1004.952,1216.75
1005.897,1205.25
1006.841,1220.00
1007.786,1223.25
1008.730,1182.50
1009.674,1200.25
1010.618,1231.25
1011.564,1173.25
1012.508,1178.75
1013.452,1238.75
1014.396,1190.25
1015.339,1242.25
1016.283,1247.25
1017.226,1207.50
1018.170,1236.50
1019.113,1206.75
1020.056,1221.00
1020.999,1241.00
1021.942,1192.75
1022.885,1236.25
1023.828,1222.00
1024.770,1206.75
1025.715,1243.50
1026.657,1222.00
1027.600,1208.00
1028.542,1237.75
1029.484,1208.25
1030.426,1224.50
1031.368,1230.00
1032.310,1240.75
1033.251,1222.75
1034.193,1224.75
1035.135,1221.00
1036.076,1254.00
1037.017,1259.00
1037.959,1227.75
1038.900,1227.25
1039.843,1246.75
1040.784,1217.75
1041.725,1251.25
1042.665,1270.00
1043.606,1239.25
1044.547,1287.25
1045.487,1256.75
1046.427,1292.50
1047.368,1259.75
1048.308,1274.00
1049.248,1243.00
1050.188,1241.75
1051.128,1292.00
1052.067,1252.75
1053.007,1254.00
1053.947,1265.50
1054.886,1248.25
1055.827,1286.25
1056.766,1283.25
1057.706,1282.50
1058.645,1297.75
1059.584,1270.25
1060.522,1307.50
1061.461,1275.00
1062.400,1290.50
1063.338,1307.25
1064.277,1302.75
1065.215,1248.25
1066.154,1291.25
1067.092,1312.50
1068.030,1298.00
1068.968,1295.00
1069.906,1328.00
1070.843,1278.25
1071.781,1343.00
1072.720,1326.00
1073.658,1347.50
1074.595,1279.00
1075.533,1335.25
1076.470,1317.50
1077.407,1364.50
1078.344,1337.00
1079.281,1279.25
1080.217,1317.25
1081.154,1317.50
1082.091,1302.50
1083.027,1303.50
1083.964,1360.00
1084.900,1301.00
1085.836,1316.50
1086.772,1302.75
1087.708,1298.75
1088.644,1270.75
1089.580,1287.50
1090.515,1327.25
1091.451,1287.25
1092.388,1268.00
1093.324,1343.75
1094.259,1263.50
1095.194,1316.00
1096.129,1316.25
1097.064,1288.50
1097.999,1328.00
1098.934,1303.50
1099.869,1292.50
1100.803,1280.00
1101.738,1281.50
1102.672,1310.75
1103.607,1283.25
1104.541,1290.50
1105.475,1290.75
1106.409,1272.75
1107.343,1257.00
1108.277,1275.25
1109.210,1257.25
1110.144,1229.25
1111.078,1244.00
1112.011,1248.50
1112.944,1250.25
1113.878,1242.25
1114.811,1221.25
1115.744,1209.25
1116.678,1166.50
1117.611,1189.75
1118.544,1193.75
1119.477,1182.75
1120.409,1235.75
1121.342,1177.75
1122.274,1156.25
1123.206,1203.25
1124.138,1197.75
1125.070,1185.75
1126.002,1182.50
1126.934,1169.00
1127.866,1177.75
1128.798,1177.25
1129.729,1172.75
1130.661,1113.25
1131.592,1119.50
1132.523,1079.50
1133.454,1148.00
1134.385,1126.00
1135.317,1146.00
1136.247,1111.75
1137.178,1149.75
1138.109,1156.75
1139.039,1167.50
1139.970,1112.25
1140.900,1130.00
1141.831,1119.75
1142.761,1053.50
1143.691,1130.25
1144.621,1127.00
1145.551,1094.75
1146.480,1103.00
1147.410,1083.75
1148.340,1115.00
1149.269,1107.50
1150.199,1039.25
1151.128,1053.25
1152.057,1104.25
1152.979,1057.50
1153.898,1133.00
1154.819,1090.25
1155.739,1059.00
1156.658,1078.00
1157.579,1107.75
1158.498,1085.50
1159.419,1080.25
1160.338,1087.00
1161.256,1079.25
1162.177,1091.25
1163.095,1073.25
1164.016,1078.25
1164.934,1047.00
1165.852,1088.75
1166.772,1062.00
1167.690,1069.00
1168.610,1067.00
1169.528,1068.00
1170.446,1057.25
1171.365,1016.00
1172.283,1077.50
1173.202,1011.00
1174.120,1032.25
1175.037,1060.25
1175.956,1032.50
1176.873,1049.25
1177.792,1047.00
1178.709,1048.50
1179.626,1065.25
1180.544,1053.75
1181.461,1039.00
1182.379,1019.50
1183.296,1053.75
1184.212,1040.25
1185.130,1027.25
1186.046,1071.50
1186.962,1000.00
1187.880,990.75
1188.796,1011.25
1189.714,1036.00
1190.629,1001.75
1191.545,1018.75
1192.462,1033.00
1193.378,1089.00
1194.295,1028.75
1195.210,1035.50
1196.125,1020.00
1197.042,1054.50
1197.957,1068.75
1198.872,1004.00
1199.788,1023.75
1200.703,1014.75
1201.619,1036.50
1202.534,1036.50
1203.448,1023.50
1204.364,1014.00
1205.278,1043.00
1206.192,1009.75
1207.108,1045.75
1208.022,1042.75
1208.938,1036.25
1209.851,1038.75
1210.765,1054.00
1211.680,1029.50
1212.594,1039.25
1213.507,1034.25
1214.422,1048.75
1215.335,1036.75
1216.248,1086.25
1217.163,1046.50
1218.076,1073.25
1218.990,1017.25
1219.903,1051.00
1220.816,1045.00
1221.730,1045.75
1222.642,1040.25
1223.554,1035.25
1224.469,1055.75
1225.380,1027.75
1226.292,1045.75
1227.206,1048.25
1228.118,1051.75
1229.032,1050.00
1229.943,1053.50
1230.855,1101.00
1231.768,1053.75
1232.679,1040.25
1233.590,1052.50
1234.503,1052.75
1235.414,1050.50
1236.325,1062.75
1237.238,1024.00
1238.149,1075.75
1239.059,1098.00
1239.972,1046.50
1240.882,1027.00
1241.793,1057.25
1242.705,1047.00
1243.615,1036.00
1244.525,1076.50
1245.437,1066.75
1246.347,1110.25
1247.259,1087.75
1248.168,1090.50
1249.078,1131.50
1249.989,1045.00
1250.899,1048.75
1251.808,1104.00
1252.719,1053.50
1253.628,1056.25
1254.537,1111.25
1255.448,1075.25
1256.357,1101.25
1257.266,1110.50
1258.176,1086.25
1259.085,1076.00
1259.993,1068.00
1260.904,1099.00
1261.812,1088.50
1262.720,1085.00
1263.630,1103.00
1264.538,1083.25
1265.446,1066.50
1266.356,1090.00
1267.263,1098.25
1268.171,1088.25
1269.080,1068.25
1269.988,1085.50
1270.895,1102.75
1271.804,1097.75
1272.711,1110.00
1273.619,1081.00
1274.527,1099.75
1275.434,1096.00
1276.341,1110.25
1277.248,1112.50
1278.156,1083.25
1279.063,1112.00
1279.969,1089.50
1280.877,1050.00
1281.783,1121.50
1282.690,1109.50
1283.598,1086.50
1284.503,1096.00
1285.409,1095.50
1286.317,1096.50
1287.223,1086.25
1288.128,1072.50
1289.036,1061.50
1289.941,1106.50
1290.846,1082.25
1291.751,1077.25
1292.658,1102.00
1293.563,1046.00
1294.468,1032.00
1295.375,1030.00
1296.280,1069.00
1297.184,1054.25
1298.091,1073.50
1298.995,1013.75
1299.900,1035.75
1300.806,1044.25
1301.710,1036.25
1302.614,1003.25
1303.518,1026.75
1304.424,1038.75
1305.327,1087.25
1306.231,1017.25
1307.137,1026.75
1308.040,1037.25
1308.943,999.75
1309.847,1028.00
1310.752,1035.75
1311.655,1070.25
1312.558,992.50
1313.463,984.00
1314.366,999.50
1315.269,1032.50
1316.171,1000.00
1317.076,983.50
1317.978,1036.50
1318.881,999.50
1319.785,1002.75
1320.687,948.50
1321.589,984.75
1322.491,981.50
1323.395,972.75
