RamanScope Measure Spectrum Data V3.72

<< MEASURE CONDITION >>
Exposure Type,Aver
Exposure Time [sec],20
Exposure Count,2
Measure Time,2024/02/15 20:53:33
Data Name,""
Data Comment,""
Rayleigh Wave[nm],532.0

<< SAMPLE SPECTRUM >>
Wave[dcm-1],No28
96.716,-1.50
97.759,-34.50
98.802,24.50
99.846,48.00
100.886,14.00
101.929,-25.50
102.972,-0.50
104.015,15.50
105.057,9.00
106.100,22.50
107.142,-2.50
108.184,-21.00
109.226,39.00
110.268,31.00
111.310,18.00
112.352,7.00
113.393,25.00
114.435,8.00
115.476,30.50
116.517,-9.50
117.558,24.00
118.599,34.50
119.640,23.00
120.681,36.50
121.722,16.50
122.762,29.50
123.803,57.00
124.843,65.00
125.883,40.50
126.923,-1.00
127.963,22.50
129.001,48.00
130.041,7.50
131.080,50.50
132.120,21.50
133.159,46.00
134.199,-3.50
135.238,22.50
136.277,53.00
137.316,19.50
138.355,-4.50
139.393,-16.00
140.432,63.50
141.470,42.00
142.509,6.50
143.547,25.50
144.585,25.50
145.623,87.50
146.661,156.00
147.699,146.00
148.736,213.00
149.774,277.00
150.811,299.00
151.849,396.50
152.886,502.00
153.923,701.50
154.960,815.50
155.997,1001.50
157.034,1194.00
158.072,1297.00
159.109,1569.50
160.145,1757.50
161.182,2000.50
162.218,2133.50
163.254,2344.00
164.290,2522.00
165.326,2647.50
166.361,2751.50
167.397,2868.00
168.432,2943.00
169.468,3052.00
170.503,3157.50
171.538,3202.50
172.573,3226.00
173.608,3232.50
174.643,3354.50
175.677,3439.00
176.712,3413.50
177.746,3448.00
178.781,3549.00
179.815,3655.00
180.849,3685.50
181.883,3718.50
182.917,3761.00
183.951,3921.50
184.984,3863.00
186.020,3888.50
187.053,3970.00
188.087,4014.50
189.120,4024.50
190.153,4040.00
191.186,3931.00
192.219,3941.00
193.251,3882.00
194.284,3870.00
195.317,3947.00
196.349,3903.50
197.381,3930.50
198.413,3965.00
199.445,3972.00
200.477,3957.00
201.509,4056.00
202.543,4082.50
203.575,4059.00
204.606,4103.00
205.637,4152.50
206.669,4201.50
207.700,4254.50
208.731,4265.50
209.762,4380.00
210.792,4447.50
211.823,4477.00
212.854,4504.00
213.884,4539.00
214.914,4607.50
215.947,4678.00
216.977,4700.00
218.007,4756.50
219.037,4796.00
220.066,4900.00
221.096,4957.50
222.126,4954.50
223.155,4990.50
224.184,5005.50
225.214,5111.50
226.245,4918.50
227.274,5092.50
228.302,5011.00
229.331,4950.50
230.360,4996.50
231.388,4963.50
232.417,4910.00
233.445,4943.00
234.473,4866.00
235.501,4776.00
236.531,4763.50
237.559,4741.00
238.587,4642.00
239.614,4624.50
240.642,4622.50
241.669,4634.00
242.696,4650.50
243.724,4576.00
244.753,4502.00
245.780,4598.50
246.806,4591.50
247.833,4610.50
248.860,4573.00
249.886,4539.00
250.913,4570.00
251.939,4612.50
252.967,4600.50
253.993,4561.00
255.019,4568.00
256.045,4696.00
257.070,4715.50
258.096,4684.00
259.121,4649.00
260.147,4665.50
261.174,4686.00
262.199,4729.50
263.224,4738.50
264.249,4768.00
265.274,4710.00
266.298,4759.00
267.323,4876.00
268.349,4847.50
269.374,4817.00
270.398,4850.00
271.422,4886.00
272.446,4931.50
273.470,4915.50
274.496,4869.00
275.519,5003.50
276.543,4924.50
277.566,5037.50
278.589,5020.00
279.613,4992.50
280.636,5149.50
281.661,5090.00
282.684,5135.00
283.706,4996.50
284.729,5089.00
285.751,5018.50
286.774,4912.50
287.798,5000.50
288.820,4938.00
289.842,4936.50
290.864,4899.50
291.886,4815.00
292.910,4799.50
293.932,4803.00
294.953,4680.00
295.974,4646.50
296.996,4751.00
298.017,4689.50
299.040,4595.00
300.061,4464.00
301.082,4563.00
302.102,4477.50
303.123,4445.50
304.143,4397.00
305.166,4460.00
306.186,4396.00
307.206,4425.00
308.226,4335.00
309.246,4294.50
310.268,4280.00
311.288,4220.50
312.307,4206.00
313.327,4225.50
314.346,4206.50
315.368,4196.50
316.387,4184.00
317.406,4152.50
318.425,4106.00
319.443,4097.00
320.464,4096.50
321.483,4093.50
322.501,4122.00
323.520,4101.00
324.538,4098.50
325.558,4086.00
326.576,4094.00
327.594,4147.00
328.612,4122.50
329.629,4085.00
330.649,4053.00
331.666,4046.50
332.684,4042.00
333.701,4060.00
334.718,4046.00
335.737,3982.00
336.754,4028.50
337.771,3962.00
338.787,4086.50
339.806,4030.00
340.823,4050.50
341.839,4066.50
342.855,4000.50
343.871,4013.50
344.889,4054.50
345.905,4002.00
346.921,4042.00
347.937,3963.50
348.954,3905.00
349.970,3990.50
350.985,4022.50
352.000,3991.00
353.017,3905.50
354.032,4010.00
355.047,4026.00
356.062,3945.50
357.077,4010.50
358.093,3920.00
359.108,3977.50
360.122,3992.50
361.136,3962.00
362.152,3934.00
363.166,3984.50
364.180,3967.50
365.194,3940.00
366.210,3904.00
367.223,4034.00
368.237,3963.50
369.250,3943.50
370.265,3971.50
371.278,3957.50
372.291,3957.50
373.304,3932.00
374.319,3930.50
375.332,3979.00
376.344,4012.50
377.357,4008.50
378.371,3916.50
379.383,4020.50
380.395,4026.50
381.407,3964.00
382.421,3948.00
383.433,3972.50
384.445,4018.50
385.456,4004.50
386.470,3947.50
387.481,4009.50
388.492,3986.00
389.505,3945.00
390.516,4026.50
391.527,3974.00
392.538,3951.00
393.551,3931.00
394.561,3943.50
395.572,3972.50
396.582,3922.50
397.594,3920.00
398.604,3896.50
399.614,3900.00
400.624,3901.00
401.636,3783.00
402.646,3884.50
403.655,3835.50
404.667,3864.50
405.676,3852.00
406.685,3922.50
407.694,3800.50
408.705,3828.50
409.714,3767.00
410.723,3817.00
411.734,3768.00
412.742,3775.50
413.751,3713.00
414.759,3785.00
415.769,3773.00
416.777,3675.00
417.785,3678.00
418.795,3692.00
419.803,3605.50
420.811,3666.50
421.818,3676.50
422.828,3725.50
423.835,3642.00
424.842,3596.50
425.852,3632.50
426.859,3661.00
427.866,3597.00
428.874,3604.00
429.881,3620.50
430.888,3573.00
431.894,3483.50
432.902,3521.00
433.909,3556.50
434.915,3543.50
435.923,3542.00
436.929,3575.50
437.935,3493.00
438.942,3517.00
439.948,3542.50
440.953,3554.00
441.959,3458.00
442.966,3466.50
443.971,3516.00
444.976,3537.50
445.983,3445.00
446.988,3501.50
447.993,3472.00
448.999,3413.00
450.004,3472.00
451.008,3444.50
452.014,3420.00
453.019,3459.00
454.023,3495.50
455.029,3390.50
456.032,3438.00
457.036,3388.00
458.042,3464.50
459.045,3429.50
460.049,3427.50
461.052,3448.50
462.057,3444.00
463.060,3389.50
464.063,3388.50
465.068,3450.50
466.071,3468.50
467.073,3412.50
468.078,3422.00
469.080,3399.50
470.082,3439.00
471.087,3367.00
472.089,3425.00
473.091,3411.00
474.095,3426.00
475.096,3381.00
476.098,3393.50
477.101,3426.00
478.103,3494.00
479.104,3413.00
480.107,3454.50
481.108,3420.00
482.109,3389.00
483.112,3377.00
484.113,3458.50
485.114,3319.50
486.116,3358.50
487.117,3346.50
488.117,3336.00
489.119,3358.00
490.119,3371.00
491.121,3340.50
492.121,3336.50
493.121,3355.00
494.123,3314.00
495.122,3311.50
496.122,3356.00
497.123,3383.00
498.122,3364.50
499.121,3354.00
500.122,3264.00
501.121,3353.00
502.120,3354.00
503.121,3312.00
504.119,3332.00
505.118,3330.50
506.118,3326.00
507.117,3233.00
508.115,3332.50
509.115,3213.50
510.113,3284.50
511.112,3295.00
512.110,3212.00
513.108,3220.50
514.107,3259.00
515.105,3277.00
516.102,3179.00
517.101,3236.50
518.098,3216.00
519.095,3235.00
520.094,3174.00
521.091,3228.00
522.089,3226.00
523.086,3221.50
524.082,3218.00
525.081,3208.00
526.077,3158.50
527.073,3240.00
528.071,3160.00
529.067,3209.50
530.064,3193.50
531.060,3204.00
532.056,3136.50
533.053,3197.00
534.048,3196.50
535.044,3229.00
536.041,3156.00
537.036,3145.50
538.030,3228.50
539.027,3221.00
540.022,3196.50
541.019,3194.50
542.013,3185.50
543.007,3189.50
544.004,3161.50
544.998,3132.50
545.994,3208.50
546.988,3147.50
547.981,3170.00
548.977,3113.50
549.971,3139.50
550.964,3135.50
551.960,3124.50
552.953,3171.50
553.948,3210.00
554.941,3124.00
555.934,3124.50
556.929,3074.50
557.922,3135.00
558.916,3183.00
559.909,3152.50
560.901,3107.00
561.895,3081.50
562.888,3161.00
563.880,3066.00
564.874,3086.00
565.865,3090.50
566.859,3043.50
567.851,3156.50
568.842,3064.00
569.836,3126.00
570.827,3128.00
571.820,3094.50
572.811,3098.00
573.802,2991.50
574.795,2986.00
575.786,3043.50
576.779,2982.00
577.769,3016.50
578.760,3049.50
579.752,3090.00
580.742,3116.00
581.735,3005.00
582.725,2991.00
583.714,3021.00
584.706,3031.50
585.696,3056.00
586.688,3075.50
587.677,3019.50
588.667,3012.00
589.658,3032.50
590.647,3053.00
591.638,3030.50
592.627,2973.00
593.616,2967.00
594.607,2949.50
595.595,3037.00
596.586,2974.50
597.574,2971.50
598.562,2963.50
599.553,2921.50
600.541,2939.00
601.531,2974.50
602.519,2995.00
603.508,2923.50
604.496,3004.50
605.484,2959.00
606.473,2926.50
607.460,2922.50
608.450,2918.00
609.437,2911.00
610.424,2957.50
611.413,2910.50
612.400,2924.50
613.388,2922.50
614.375,2880.00
615.361,2971.50
616.350,2910.00
617.336,2903.00
618.324,2869.50
619.310,2859.50
620.298,2866.00
621.284,2853.00
622.270,2906.00
623.257,2821.50
624.243,2784.50
625.230,2767.00
626.216,2804.00
627.203,2815.50
628.188,2825.50
629.173,2761.50
630.160,2728.50
631.145,2786.00
632.131,2703.00
633.116,2719.50
634.102,2651.00
635.087,2738.50
636.071,2673.00
637.057,2682.50
638.041,2647.00
639.027,2685.00
640.011,2616.00
640.995,2661.00
641.980,2584.00
642.964,2620.50
643.949,2623.50
644.932,2630.00
645.918,2587.50
646.901,2539.50
647.886,2574.50
648.868,2567.00
649.851,2525.50
650.836,2561.50
651.818,2608.50
652.803,2533.00
653.785,2554.00
654.769,2526.00
655.751,2539.00
656.733,2539.00
657.717,2511.50
658.699,2548.00
659.683,2463.50
660.664,2488.50
661.648,2431.50
662.629,2395.50
663.611,2459.50
664.594,2480.50
665.575,2431.50
666.558,2454.50
667.539,2469.00
668.521,2495.00
669.502,2433.50
670.484,2389.50
671.465,2401.50
672.445,2419.00
673.427,2386.50
674.407,2412.00
675.390,2346.50
676.369,2363.00
677.351,2361.00
678.331,2350.50
679.312,2347.00
680.292,2392.00
681.271,2365.50
682.253,2393.50
683.232,2390.00
684.213,2327.00
685.192,2272.00
686.172,2309.50
687.151,2303.50
688.132,2350.50
689.110,2240.00
690.089,2266.00
691.069,2212.00
692.047,2265.00
693.027,2299.00
694.005,2219.50
694.985,2262.50
695.963,2227.50
696.943,2222.50
697.920,2208.00
698.898,2247.50
699.877,2199.00
700.854,2179.00
701.833,2205.50
702.810,2164.50
703.789,2146.00
704.766,2118.50
705.745,2182.00
706.721,2129.50
707.698,2146.50
708.676,2191.00
709.653,2138.50
710.631,2119.00
711.607,2124.50
712.585,2185.00
713.561,2157.00
714.539,2098.50
715.514,2107.00
716.492,2106.00
717.467,2096.50
718.443,2065.50
719.420,2115.50
720.395,2123.00
721.372,2092.00
722.347,2037.50
723.324,2000.50
724.298,2061.00
725.275,2137.50
726.250,2044.00
727.226,2043.50
728.200,2053.50
729.176,2047.50
730.151,2048.50
731.125,2017.00
732.100,2000.00
733.074,2021.50
734.050,2046.50
735.023,2011.00
735.999,2020.00
736.972,2066.50
737.947,2074.00
738.921,2021.50
739.896,2006.50
740.869,2028.00
741.841,2041.00
742.816,1979.00
743.789,1960.50
744.763,1980.00
745.736,2013.00
746.710,1994.00
747.682,1988.50
748.656,1962.00
749.628,1946.50
750.602,2003.50
751.574,1974.50
752.548,1952.00
753.519,1966.00
754.491,1916.00
755.464,1917.00
756.435,1960.00
757.408,1925.50
758.379,1919.50
759.352,1873.00
760.323,1884.50
761.296,1888.00
762.267,1901.00
763.239,1924.00
764.209,1885.50
765.182,1871.00
766.152,1931.00
767.124,1928.50
768.094,1876.50
769.064,1867.00
770.036,1856.50
771.005,1901.50
771.977,1846.50
772.947,1827.50
773.918,1854.00
774.887,1841.00
775.858,1860.00
776.827,1814.00
777.798,1827.00
778.767,1830.00
779.738,1801.00
780.707,1847.00
781.677,1824.50
782.646,1814.50
783.614,1780.00
784.584,1772.00
785.552,1795.50
786.522,1827.00
787.490,1730.00
788.460,1770.00
789.428,1768.00
790.397,1781.00
791.365,1716.50
792.334,1778.50
793.302,1736.00
794.271,1715.00
795.238,1768.00
796.207,1769.50
797.174,1683.50
798.143,1794.00
799.109,1742.50
800.076,1790.50
801.044,1756.00
802.011,1717.50
802.979,1715.50
803.945,1703.00
804.913,1703.50
805.879,1660.00
806.847,1695.50
807.813,1696.50
808.780,1726.00
809.746,1687.00
810.713,1642.50
811.678,1658.00
812.646,1695.00
813.611,1694.50
814.578,1737.00
815.543,1632.50
816.510,1653.00
817.474,1651.00
818.439,1682.50
819.405,1655.00
820.370,1583.50
821.336,1634.00
822.300,1585.00
823.266,1674.00
824.230,1693.50
825.196,1663.00
826.160,1654.50
827.126,1640.00
828.089,1626.00
829.055,1621.00
830.018,1646.00
830.983,1625.50
831.946,1661.50
832.911,1642.00
833.874,1643.50
834.837,1636.00
835.802,1650.00
836.765,1655.50
837.729,1579.50
838.691,1651.00
839.656,1671.00
840.618,1645.50
841.582,1580.00
842.544,1589.50
843.508,1592.50
844.470,1664.50
845.434,1600.50
846.395,1615.50
847.359,1589.50
848.320,1567.00
849.283,1594.50
850.245,1643.00
851.208,1641.00
852.169,1632.50
853.130,1592.00
854.092,1595.00
855.053,1576.00
856.016,1667.50
856.976,1601.00
857.938,1614.50
858.899,1638.50
859.861,1607.00
860.821,1635.00
861.783,1624.00
862.743,1600.00
863.704,1584.00
864.664,1636.50
865.626,1706.00
866.585,1675.50
867.546,1625.00
868.506,1578.50
869.467,1646.00
870.426,1641.50
871.387,1696.00
872.346,1627.00
873.304,1638.00
874.265,1567.00
875.223,1582.00
876.184,1601.50
877.142,1669.00
878.102,1635.00
879.060,1630.50
880.021,1635.50
880.978,1620.00
881.938,1643.00
882.896,1615.00
883.856,1597.00
884.813,1652.00
885.772,1645.00
886.730,1609.00
887.689,1660.00
888.646,1672.50
889.603,1685.00
890.562,1634.50
891.519,1682.50
892.477,1674.50
893.434,1629.50
894.392,1633.00
895.349,1663.50
896.307,1661.50
897.263,1655.00
898.221,1645.50
899.177,1702.50
900.135,1703.50
901.091,1671.50
902.048,1621.50
903.004,1675.00
903.961,1709.00
904.917,1682.50
905.874,1622.00
906.829,1682.00
907.784,1721.50
908.741,1712.00
909.696,1715.00
910.653,1729.50
911.607,1662.00
912.564,1723.50
913.518,1701.50
914.475,1735.50
915.429,1658.00
916.385,1646.00
917.339,1692.00
918.295,1693.00
919.249,1756.50
920.205,1743.50
921.158,1746.00
922.114,1721.00
923.067,1770.00
924.020,1753.50
924.976,1684.50
925.929,1746.50
926.884,1756.50
927.837,1774.50
928.791,1740.00
929.744,1773.50
930.699,1759.50
931.651,1751.50
932.606,1737.50
933.558,1756.50
934.512,1763.00
935.464,1758.50
936.418,1698.00
937.370,1753.50
938.322,1725.00
939.276,1732.00
940.227,1772.50
941.181,1755.00
942.132,1777.00
943.085,1751.00
944.036,1772.50
944.990,1747.00
945.941,1752.00
946.893,1771.50
947.844,1753.50
948.797,1739.50
949.747,1848.00
950.700,1772.00
951.650,1765.00
952.601,1758.00
953.553,1766.50
954.503,1756.50
955.455,1740.50
956.405,1686.00
957.356,1782.00
958.306,1778.50
959.258,1723.50
960.207,1724.00
961.158,1714.00
962.108,1766.50
963.059,1694.00
964.008,1725.50
964.959,1691.50
965.908,1735.00
966.856,1753.50
967.807,1739.00
968.756,1700.00
969.706,1730.50
970.654,1716.50
971.605,1748.50
972.553,1735.00
973.503,1715.50
974.451,1701.50
975.401,1696.00
976.348,1740.50
977.296,1710.00
978.246,1720.50
979.193,1650.00
980.142,1634.00
981.090,1682.50
982.039,1604.50
982.986,1655.50
983.935,1621.50
984.882,1701.50
985.830,1669.00
986.777,1630.50
987.725,1648.00
988.672,1648.50
989.618,1641.50
990.567,1631.50
991.513,1639.50
992.461,1666.50
993.407,1698.00
994.354,1606.00
995.300,1660.00
996.248,1641.00
997.193,1602.50
998.141,1611.50
999.086,1621.00
1000.031,1650.00
1000.978,1578.50
1001.924,1626.50
1002.870,1664.00
1003.815,1642.50
1004.762,1633.00
1005.707,1538.50
1006.653,1556.00
1007.598,1569.50
1008.542,1520.00
1009.488,1597.00
1010.432,1643.00
1011.378,1568.00
1012.322,1540.50
1013.268,1566.50
1014.212,1562.50
1015.157,1526.00
1016.101,1547.00
1017.046,1549.50
1017.990,1520.00
1018.933,1539.00
1019.878,1551.50
1020.821,1564.50
1021.766,1559.50
1022.709,1569.50
1023.654,1566.50
1024.596,1547.00
1025.541,1516.00
1026.483,1496.50
1027.425,1555.50
1028.370,1477.00
1029.312,1555.00
1030.256,1554.50
1031.198,1548.50
1032.141,1473.00
1033.083,1522.50
1034.027,1521.50
1034.968,1521.00
1035.910,1470.00
1036.853,1509.00
1037.794,1562.50
1038.738,1550.00
1039.679,1496.00
1040.621,1519.00
1041.562,1538.00
1042.503,1499.00
1043.446,1538.50
1044.386,1521.50
1045.329,1558.50
1046.269,1510.00
1047.211,1496.00
1048.151,1483.50
1049.093,1482.00
1050.033,1497.50
1050.973,1452.00
1051.915,1497.00
1052.854,1493.50
1053.796,1446.50
1054.735,1467.50
1055.677,1504.50
1056.616,1467.00
1057.555,1488.00
1058.496,1484.50
1059.435,1495.00
1060.376,1493.00
1061.315,1482.00
1062.255,1507.00
1063.194,1495.00
1064.132,1467.00
1065.073,1485.00
1066.011,1416.00
1066.951,1409.50
1067.889,1463.50
1068.829,1509.50
1069.767,1468.50
1070.705,1464.50
1071.644,1519.00
1072.582,1472.50
1073.521,1481.00
1074.459,1471.00
1075.398,1489.50
1076.335,1464.50
1077.272,1480.50
1078.211,1516.00
1079.148,1408.00
1080.087,1450.50
1081.023,1446.00
1081.962,1474.50
1082.898,1486.50
1083.835,1483.00
1084.773,1508.50
1085.709,1467.50
1086.647,1442.00
1087.583,1453.50
1088.519,1477.50
1089.457,1480.00
1090.392,1489.00
1091.330,1483.00
1092.266,1513.50
1093.203,1424.50
1094.138,1442.50
1095.073,1455.50
1096.010,1473.00
1096.945,1475.50
1097.882,1469.50
1098.817,1443.50
1099.752,1591.00
1100.688,1494.00
1101.623,1481.50
1102.559,1509.00
1103.493,1407.50
1104.430,1459.50
1105.364,1465.50
1106.298,1473.00
1107.234,1504.50
1108.167,1441.00
1109.094,1424.50
1110.019,1443.50
1110.945,1424.50
1111.869,1434.00
1112.795,1435.50
1113.720,1432.50
1114.646,1423.00
1115.571,1464.00
1116.495,1384.00
1117.420,1459.50
1118.345,1395.50
1119.270,1427.00
1120.195,1400.00
1121.118,1421.00
1122.042,1429.50
1122.967,1339.00
1123.891,1399.00
1124.816,1401.00
1125.738,1334.00
1126.663,1342.50
1127.587,1395.50
1128.511,1391.50
1129.435,1395.50
1130.357,1414.00
1131.280,1350.50
1132.204,1365.00
1133.128,1416.50
1134.051,1372.00
1134.972,1381.00
1135.896,1372.00
1136.819,1378.50
1137.742,1358.00
1138.665,1402.00
1139.586,1370.50
1140.509,1344.50
1141.431,1338.50
1142.354,1306.50
1143.276,1344.50
1144.197,1340.50
1145.119,1347.00
1146.041,1395.50
1146.964,1375.50
1147.885,1288.00
1148.806,1307.50
1149.727,1339.00
1150.649,1378.50
1151.571,1364.00
1152.492,1334.50
1153.412,1323.50
1154.333,1336.50
1155.254,1337.50
1156.175,1336.00
1157.095,1336.50
1158.016,1323.50
1158.936,1292.00
1159.857,1279.00
1160.778,1320.50
1161.697,1330.00
1162.617,1318.50
1163.537,1319.00
1164.458,1275.50
1165.376,1298.00
1166.296,1344.50
1167.216,1271.00
1168.136,1281.00
1169.056,1322.00
1169.974,1306.50
1170.893,1273.00
1171.813,1292.50
1172.732,1287.50
1173.650,1296.50
1174.569,1296.50
1175.488,1273.00
1176.407,1355.00
1177.326,1277.00
1178.243,1256.50
1179.161,1291.00
1180.080,1308.50
1180.999,1304.00
1181.915,1347.00
1182.834,1320.50
1183.752,1263.50
1184.670,1251.00
1185.586,1296.00
1186.504,1237.50
1187.422,1286.50
1188.340,1270.00
1189.258,1295.00
1190.173,1281.50
1191.091,1217.00
1192.008,1263.00
1192.926,1281.00
1193.841,1306.00
1194.758,1320.50
1195.675,1256.50
1196.592,1221.50
1197.507,1297.00
1198.424,1315.50
1199.340,1198.50
1200.257,1244.00
1201.172,1267.00
1202.088,1258.50
1203.004,1260.50
1203.920,1297.00
1204.835,1246.50
1205.750,1319.00
1206.666,1261.50
1207.582,1271.50
1208.496,1275.00
1209.412,1320.00
1210.327,1323.00
1211.243,1279.00
1212.156,1279.00
1213.071,1280.50
1213.986,1224.00
1214.901,1240.00
1215.814,1229.50
1216.729,1218.00
1217.644,1263.50
1218.559,1271.00
1219.471,1255.50
1220.386,1289.50
1221.300,1280.50
1222.213,1269.00
1223.127,1273.50
1224.041,1227.50
1224.955,1311.50
1225.867,1254.00
1226.781,1219.50
1227.694,1302.00
1228.608,1263.00
1229.520,1257.00
1230.433,1226.50
1231.346,1280.00
1232.260,1221.00
1233.171,1255.50
1234.084,1287.00
1234.997,1352.00
1235.908,1300.00
1236.821,1243.00
1237.733,1236.00
1238.646,1224.50
1239.556,1277.00
1240.469,1239.50
1241.381,1307.50
1242.293,1241.50
1243.203,1245.00
1244.115,1304.00
1245.027,1280.50
1245.937,1285.50
1246.849,1244.50
1247.761,1253.00
1248.672,1260.50
1249.582,1263.00
1250.493,1291.00
1251.404,1271.50
1252.313,1258.00
1253.225,1210.50
1254.135,1238.50
1255.046,1289.00
1255.955,1320.00
1256.866,1283.50
1257.777,1249.00
1258.685,1258.00
1259.596,1283.50
1260.506,1233.00
1261.416,1244.50
1262.324,1263.50
1263.234,1241.50
1264.144,1261.00
1265.052,1251.00
1265.962,1325.50
1266.872,1227.00
1267.779,1268.50
1268.689,1254.00
1269.598,1240.50
1270.507,1255.50
1271.415,1282.50
1272.324,1287.50
1273.233,1291.50
1274.140,1209.00
1275.048,1234.50
1275.957,1252.00
1276.864,1239.50
1277.772,1251.50
1278.681,1218.00
1279.587,1220.00
1280.496,1263.50
1281.404,1250.00
1282.312,1311.50
1283.218,1251.50
1284.126,1280.50
1285.033,1289.00
1285.939,1238.00
1286.847,1285.50
1287.754,1248.00
