RamanScope Measure Spectrum Data V3.72

<< MEASURE CONDITION >>
Exposure Type,Aver
Exposure Time [sec],15
Exposure Count,4
Measure Time,2023/07/15 16:15:08
Data Name,""
Data Comment,""
Rayleigh Wave[nm],532.0

<< SAMPLE SPECTRUM >>
Wave[dcm-1],No163
146.591,986.00
147.626,1131.50
148.664,1351.00
149.699,1528.75
150.737,1744.25
151.772,1905.50
152.809,2058.25
153.846,2201.50
154.881,2359.50
155.918,2488.00
156.953,2601.25
157.989,2646.00
159.026,2740.50
160.060,2790.75
161.096,2893.75
162.130,2892.00
163.167,3023.50
164.200,2978.75
165.236,3018.00
166.272,3069.00
167.305,3159.00
168.341,3196.75
169.374,3272.00
170.409,3327.50
171.445,3313.00
172.477,3396.00
173.512,3456.00
174.545,3489.00
175.580,3457.25
176.614,3510.75
177.647,3553.50
178.681,3506.00
179.713,3541.75
180.747,3512.00
181.781,3510.00
182.813,3520.00
183.847,3500.50
184.878,3499.00
185.912,3442.25
186.945,3481.75
187.976,3501.00
189.010,3584.25
190.043,3535.50
191.073,3563.00
192.106,3609.25
193.137,3703.50
194.170,3675.75
195.202,3716.75
196.232,3726.50
197.265,3847.75
198.297,3889.25
199.327,3939.00
200.359,4033.75
201.388,4070.50
202.420,4151.25
203.452,4228.75
204.481,4257.50
205.512,4392.50
206.544,4502.75
207.573,4632.50
208.604,4698.50
209.635,4836.25
210.663,4958.50
211.694,5082.25
212.725,5238.50
213.753,5333.50
214.783,5412.00
215.813,5520.50
216.841,5523.50
217.871,5587.75
218.899,5548.50
219.929,5522.75
220.959,5460.00
221.986,5393.00
223.016,5248.50
224.045,5146.25
225.072,5052.00
226.101,4996.75
227.130,4807.25
228.157,4688.75
229.185,4621.00
230.214,4608.25
231.241,4519.25
232.269,4420.75
233.297,4403.75
234.323,4366.25
235.351,4326.00
236.379,4314.75
237.407,4325.50
238.433,4250.00
239.460,4274.75
240.488,4325.50
241.513,4305.00
242.540,4396.75
243.568,4398.25
244.592,4439.50
245.619,4420.00
246.646,4441.25
247.671,4360.50
248.697,4334.50
249.724,4333.50
250.748,4341.50
251.774,4375.75
252.801,4323.75
253.827,4395.25
254.850,4376.75
255.876,4404.50
256.902,4387.00
257.925,4447.50
258.951,4505.25
259.976,4518.25
260.999,4505.50
262.024,4552.00
263.049,4616.25
264.074,4630.00
265.097,4740.25
266.122,4715.75
267.146,4812.00
268.168,4814.50
269.193,4876.50
270.217,4938.50
271.241,4954.50
272.263,5024.75
273.287,5061.00
274.311,5055.00
275.332,5165.75
276.356,5169.50
277.379,5184.25
278.402,5114.50
279.424,5158.75
280.447,5086.00
281.470,5035.50
282.492,5018.75
283.513,4947.50
284.536,4942.25
285.558,4844.00
286.581,4775.50
287.601,4693.75
288.623,4612.75
289.645,4603.00
290.665,4535.50
291.687,4486.50
292.709,4366.00
293.730,4299.00
294.750,4277.00
295.771,4201.50
296.792,4233.50
297.813,4111.25
298.832,4026.50
299.853,4015.50
300.874,3944.50
301.895,3893.50
302.913,3847.25
303.934,3812.50
304.954,3758.25
305.975,3744.25
306.993,3691.50
308.013,3674.00
309.033,3582.25
310.052,3616.75
311.072,3579.00
312.090,3540.75
313.109,3529.50
314.129,3496.75
315.148,3440.75
316.165,3489.00
317.184,3500.25
318.203,3398.75
319.222,3332.00
320.238,3448.75
321.257,3351.75
322.275,3323.50
323.294,3318.00
324.312,3296.75
325.328,3288.00
326.346,3292.00
327.364,3294.75
328.382,3290.25
329.397,3243.50
330.415,3244.50
331.432,3266.50
332.450,3238.00
333.467,3223.00
334.482,3246.75
335.499,3144.25
336.516,3214.50
337.533,3237.00
338.547,3166.25
339.564,3122.75
340.580,3183.75
341.597,3114.75
342.613,3134.50
343.627,3155.00
344.643,3145.25
345.659,3100.25
346.675,3153.75
347.690,3125.25
348.704,3160.75
349.719,3117.50
350.735,3105.25
351.750,3125.75
352.765,3126.75
353.778,3175.50
354.793,3094.75
355.808,3180.25
356.822,3154.00
357.837,3114.75
358.851,3160.75
359.864,3150.25
360.878,3167.00
361.892,3131.25
362.906,3124.25
363.920,3137.25
364.932,3161.00
365.945,3135.50
366.959,3209.00
367.972,3169.00
368.986,3162.00
369.999,3094.25
371.010,3170.75
372.023,3222.25
373.036,3226.50
374.049,3215.50
375.061,3214.25
376.072,3217.75
377.084,3216.25
378.097,3281.50
379.109,3300.75
380.121,3262.00
381.133,3243.25
382.143,3241.25
383.155,3264.75
384.166,3268.00
385.178,3289.00
386.189,3264.25
387.201,3289.75
388.212,3356.25
389.221,3260.50
390.232,3234.75
391.243,3276.75
392.254,3295.00
393.264,3260.25
394.275,3257.75
395.283,3247.75
396.294,3217.00
397.304,3233.50
398.314,3208.25
399.324,3187.00
400.334,3150.75
401.344,3180.00
402.351,3113.75
403.361,3137.25
404.370,3169.25
405.380,3124.75
406.389,3085.50
407.398,3118.00
408.407,3063.00
409.414,3085.50
410.423,3102.00
411.431,3015.25
412.440,3034.25
413.448,3052.25
414.457,3029.75
415.465,2989.50
416.471,2994.00
417.479,2985.25
418.487,2921.25
419.495,2982.75
420.503,2963.50
421.510,2937.25
422.518,2891.25
423.525,2887.25
424.530,2964.75
425.537,2955.00
426.544,2910.75
427.551,2903.00
428.558,2874.75
429.565,2931.00
430.571,2854.25
431.578,2861.75
432.582,2942.00
433.588,2887.75
434.595,2916.25
435.601,2912.00
436.607,2921.00
437.612,2885.50
438.618,2883.75
439.624,2855.25
440.627,2889.50
441.633,2841.75
442.638,2865.50
443.643,2945.75
444.648,2835.00
445.653,2843.50
446.658,2925.00
447.663,2903.25
448.667,2871.75
449.672,2857.75
450.674,2872.75
451.678,2898.50
452.682,2883.25
453.687,2914.50
454.690,2904.00
455.694,2910.00
456.698,2927.75
457.702,2893.00
458.705,2894.25
459.709,2923.00
460.710,2885.50
461.713,2919.75
462.716,2933.50
463.719,2913.25
464.722,2960.50
465.725,2904.50
466.727,2938.50
467.730,2940.50
468.732,2956.75
469.735,2936.50
470.737,2918.50
471.737,2930.25
472.739,2933.75
473.741,2893.25
474.742,2958.50
475.744,2969.50
476.746,2925.75
477.747,2965.75
478.748,2896.00
479.750,2969.75
480.751,2914.75
481.752,2924.25
482.753,2938.25
483.751,2926.50
484.752,2972.75
485.753,2916.25
486.753,2935.75
487.753,2936.75
488.754,2915.50
489.754,2888.75
490.754,2872.25
491.754,2958.00
492.754,2952.25
493.753,2929.50
494.753,2884.00
495.752,2896.75
496.752,2935.25
497.749,2908.25
498.748,2920.00
499.747,2896.25
500.746,2884.75
501.745,2870.25
502.744,2856.00
503.742,2881.25
504.741,2858.00
505.739,2835.75
506.737,2831.50
507.735,2887.75
508.734,2863.75
509.732,2805.75
510.729,2800.00
511.727,2848.00
512.725,2807.00
513.720,2828.00
514.718,2818.75
515.715,2764.75
516.712,2791.50
517.709,2781.50
518.706,2786.25
519.703,2749.50
520.700,2750.75
521.696,2761.50
522.693,2790.25
523.689,2858.25
524.686,2722.75
525.682,2809.00
526.678,2772.50
527.674,2803.75
528.670,2764.75
529.666,2843.50
530.661,2814.00
531.657,2764.75
532.652,2794.25
533.648,2848.75
534.641,2785.50
535.636,2769.75
536.631,2781.75
537.626,2782.00
538.621,2833.75
539.616,2814.50
540.610,2829.25
541.605,2823.25
542.599,2832.50
543.593,2810.00
544.587,2822.25
545.581,2828.75
546.575,2804.00
547.569,2821.50
548.563,2836.50
549.557,2840.75
550.550,2796.00
551.543,2797.00
552.537,2800.00
553.530,2832.25
554.523,2823.50
555.516,2837.00
556.509,2809.50
557.502,2765.25
558.494,2789.75
559.487,2800.50
560.479,2795.50
561.472,2816.00
562.464,2792.00
563.456,2748.75
564.448,2767.50
565.440,2794.75
566.432,2780.00
567.423,2781.50
568.415,2845.75
569.404,2796.75
570.396,2817.25
571.387,2838.75
572.378,2829.75
573.369,2890.25
574.360,2852.50
575.351,2865.75
576.341,2824.75
577.332,2830.50
578.323,2848.00
579.313,2859.75
580.303,2808.50
581.293,2826.00
582.283,2816.50
583.273,2804.75
584.263,2867.50
585.253,2899.00
586.243,2784.75
587.232,2781.50
588.222,2792.75
589.211,2849.75
590.200,2807.25
591.189,2859.25
592.178,2818.25
593.167,2817.50
594.156,2781.50
595.145,2795.50
596.133,2810.25
597.122,2822.25
598.110,2800.25
599.098,2791.25
600.086,2808.50
601.074,2813.50
602.062,2787.25
603.050,2737.00
604.038,2765.25
605.025,2721.25
606.013,2772.00
607.000,2764.75
607.987,2724.50
608.975,2715.50
609.962,2689.75
610.949,2706.25
611.936,2755.00
612.922,2696.50
613.909,2663.50
614.895,2685.25
615.882,2626.25
616.868,2656.75
617.854,2656.75
618.841,2638.75
619.826,2603.75
620.812,2580.00
621.798,2602.00
622.784,2555.00
623.769,2528.75
624.755,2492.50
625.740,2548.50
626.725,2465.50
627.711,2511.50
628.698,2474.25
629.683,2395.75
630.667,2396.50
631.652,2424.50
632.637,2464.25
633.621,2408.00
634.606,2377.25
635.590,2349.00
636.574,2325.50
637.558,2317.75
638.542,2363.50
639.526,2314.25
640.510,2313.50
641.493,2332.25
642.477,2351.00
643.460,2306.25
644.444,2283.00
645.427,2297.00
646.410,2259.25
647.393,2249.50
648.376,2259.75
649.359,2236.25
650.341,2244.50
651.324,2229.25
652.307,2204.25
653.289,2205.25
654.271,2208.00
655.253,2180.75
656.235,2162.25
657.217,2164.75
658.199,2213.75
659.181,2190.50
660.163,2154.75
661.144,2133.25
662.126,2150.75
663.107,2121.75
664.088,2125.50
665.069,2173.75
666.050,2119.00
667.033,2128.00
668.014,2102.00
668.995,2107.50
669.975,2138.00
670.956,2062.75
671.936,2072.00
672.916,2083.25
673.896,2095.50
674.876,2066.50
675.856,2051.00
676.836,2025.25
677.816,2006.75
678.795,2015.50
679.775,2007.50
680.754,2054.50
681.734,1971.25
682.713,1964.75
683.692,1985.00
684.671,1998.50
685.650,1965.50
686.629,1966.25
687.607,1909.25
688.586,1898.50
689.564,1905.50
690.543,1912.25
691.523,1922.00
692.501,1876.00
693.479,1853.25
694.457,1828.50
695.435,1818.75
696.413,1868.75
697.390,1811.25
698.368,1815.75
699.345,1828.75
700.322,1854.75
701.300,1803.50
702.277,1823.00
703.254,1801.25
704.231,1797.00
705.207,1818.50
706.184,1798.00
707.161,1816.25
708.137,1789.50
709.113,1768.50
710.090,1793.25
711.068,1749.25
712.044,1735.75
713.020,1727.75
713.996,1713.75
714.971,1737.00
715.947,1745.25
716.922,1730.25
717.898,1690.75
718.873,1705.25
719.848,1697.50
720.823,1745.00
721.798,1701.00
722.773,1720.25
723.748,1689.25
724.723,1691.25
725.697,1686.75
726.672,1677.75
727.646,1677.00
728.622,1663.25
729.596,1656.25
730.570,1651.00
731.544,1652.00
732.518,1619.25
733.492,1646.00
734.466,1680.75
735.439,1641.50
736.413,1624.75
737.386,1582.00
738.359,1683.25
739.332,1687.25
740.305,1639.75
741.278,1625.00
742.251,1598.50
743.224,1585.00
744.196,1590.00
745.171,1613.50
746.143,1593.50
747.115,1593.75
748.087,1629.75
749.059,1576.75
750.031,1573.50
751.003,1551.50
751.975,1557.25
752.947,1562.25
753.918,1534.25
754.890,1600.75
755.861,1538.25
756.832,1585.00
757.803,1523.75
758.774,1569.00
759.747,1524.00
760.718,1559.00
761.689,1499.00
762.659,1564.75
763.630,1521.25
764.600,1504.25
765.570,1486.75
766.540,1522.75
767.510,1541.75
768.480,1551.25
769.450,1455.25
770.420,1534.75
771.390,1479.00
772.359,1485.00
773.329,1494.00
774.300,1452.50
775.269,1487.50
776.238,1472.25
777.207,1436.75
778.176,1457.75
779.145,1492.00
780.114,1477.50
781.083,1439.75
782.051,1424.25
783.019,1448.00
783.988,1457.25
784.956,1422.25
785.924,1454.00
786.894,1423.00
787.862,1419.00
788.830,1432.25
789.797,1379.25
790.765,1379.75
791.732,1374.50
792.700,1435.50
793.667,1377.50
794.634,1422.25
795.601,1410.00
796.568,1424.50
797.535,1380.75
798.502,1428.50
799.468,1381.00
800.437,1347.50
801.403,1368.25
802.370,1342.25
803.336,1368.50
804.302,1377.25
805.268,1385.00
806.234,1362.75
807.200,1333.25
808.166,1336.75
809.131,1370.00
810.097,1336.75
811.062,1425.25
812.027,1323.00
812.994,1367.00
813.960,1351.00
814.925,1328.75
815.889,1347.50
816.854,1320.50
817.819,1325.25
818.783,1281.25
819.748,1357.00
820.712,1316.25
821.677,1337.50
822.641,1321.00
823.605,1303.75
824.571,1347.50
825.534,1362.25
826.498,1339.50
827.462,1300.50
828.425,1332.00
829.389,1327.50
830.352,1334.25
831.315,1343.75
832.279,1350.25
833.242,1314.75
834.204,1330.50
835.167,1339.00
836.132,1334.25
837.095,1317.00
838.057,1325.00
839.020,1305.50
839.982,1364.50
840.944,1302.50
841.906,1338.75
842.868,1349.25
843.830,1306.50
844.792,1317.50
845.753,1353.25
846.715,1311.00
847.679,1330.75
848.640,1314.75
849.601,1365.25
850.562,1342.75
851.523,1365.75
852.484,1361.25
853.445,1357.25
854.406,1317.00
855.367,1357.00
856.327,1381.00
857.288,1281.75
858.248,1368.00
859.210,1363.50
860.170,1366.50
861.130,1326.50
862.090,1301.00
863.050,1341.00
864.010,1346.50
864.969,1342.50
865.929,1354.75
866.888,1350.25
867.848,1384.00
868.807,1354.25
869.766,1392.50
870.727,1383.00
871.686,1349.00
872.645,1365.75
873.604,1355.75
874.562,1377.75
875.521,1357.50
876.479,1323.00
877.437,1385.00
878.396,1366.00
879.354,1363.00
880.312,1400.50
881.270,1341.75
882.229,1365.50
883.187,1371.00
884.145,1356.75
885.102,1386.00
886.059,1379.00
887.017,1366.75
887.974,1372.50
888.931,1389.50
889.888,1370.50
890.845,1405.75
891.802,1395.50
892.758,1327.75
893.717,1376.25
894.673,1385.50
895.630,1376.75
896.586,1301.50
897.542,1320.75
898.498,1374.00
899.454,1400.00
900.410,1336.25
901.366,1417.50
902.321,1353.00
903.277,1394.75
904.232,1391.50
905.189,1390.25
906.145,1400.75
907.100,1359.50
908.055,1369.00
909.010,1387.25
909.965,1382.00
910.919,1352.25
911.874,1391.25
912.828,1376.50
913.783,1390.75
914.737,1396.50
915.693,1362.00
916.648,1393.00
917.602,1390.75
918.555,1378.50
919.509,1392.25
920.463,1390.75
921.417,1374.75
922.370,1346.75
923.324,1400.25
924.277,1326.50
925.230,1366.75
926.183,1362.75
927.138,1363.25
928.091,1373.75
929.044,1371.50
929.996,1411.00
930.949,1341.75
931.902,1413.00
932.854,1342.75
933.806,1370.75
934.758,1372.75
935.711,1361.00
936.663,1361.75
937.614,1371.00
938.568,1346.50
939.520,1330.25
940.471,1387.50
941.423,1377.75
942.374,1350.25
943.326,1323.75
944.277,1345.00
945.228,1361.50
946.179,1342.50
947.130,1377.25
948.080,1357.00
949.031,1357.75
949.984,1332.50
950.934,1344.25
951.884,1333.00
952.835,1317.50
953.785,1325.25
954.735,1330.75
955.685,1286.50
956.635,1312.50
957.585,1334.50
958.534,1343.25
959.484,1311.00
960.433,1314.25
961.383,1302.25
962.334,1361.50
963.283,1282.00
964.232,1320.75
965.181,1283.25
966.130,1287.25
967.079,1279.50
968.027,1321.75
968.976,1317.75
969.924,1282.00
970.873,1273.00
971.821,1294.75
972.769,1257.25
973.719,1319.50
974.667,1262.00
975.615,1313.75
976.562,1298.00
977.510,1307.75
978.458,1292.50
979.405,1270.50
980.352,1272.25
981.300,1307.50
982.247,1271.75
983.194,1269.75
984.141,1284.25
985.088,1274.00
986.036,1274.25
986.983,1289.25
987.930,1295.75
988.876,1272.00
989.822,1294.00
990.769,1295.25
991.715,1289.25
992.661,1250.75
993.607,1276.75
994.553,1299.25
995.498,1270.00
996.444,1320.50
997.389,1308.25
998.337,1288.00
999.282,1294.25
1000.227,1236.75
1001.173,1279.75
1002.118,1210.25
1003.062,1280.75
1004.007,1229.00
1004.952,1252.75
1005.897,1274.00
1006.841,1217.25
1007.786,1240.00
1008.730,1261.50
1009.674,1229.50
1010.618,1266.25
1011.564,1255.75
1012.508,1271.50
1013.452,1266.25
1014.396,1236.00
1015.339,1226.75
1016.283,1234.00
1017.226,1244.25
1018.170,1245.00
1019.113,1242.50
1020.056,1264.75
1020.999,1253.75
1021.942,1276.00
1022.885,1264.50
1023.828,1231.00
1024.770,1277.75
1025.715,1294.25
1026.657,1316.75
1027.600,1258.25
1028.542,1233.00
1029.484,1264.75
1030.426,1269.00
1031.368,1274.00
1032.310,1255.75
1033.251,1245.50
1034.193,1287.75
1035.135,1281.50
1036.076,1235.00
1037.017,1274.00
1037.959,1272.50
1038.900,1273.75
1039.843,1272.50
1040.784,1301.75
1041.725,1326.25
1042.665,1300.50
1043.606,1292.00
1044.547,1257.50
1045.487,1323.50
1046.427,1256.00
1047.368,1285.50
1048.308,1291.25
1049.248,1286.75
1050.188,1274.25
1051.128,1322.50
1052.067,1266.25
1053.007,1320.00
1053.947,1283.50
1054.886,1286.75
1055.827,1290.75
1056.766,1302.00
1057.706,1280.50
1058.645,1324.25
1059.584,1314.00
1060.522,1292.50
1061.461,1317.25
1062.400,1300.25
1063.338,1342.00
1064.277,1316.50
1065.215,1294.50
1066.154,1322.00
1067.092,1303.00
1068.030,1363.50
1068.968,1343.50
1069.906,1292.00
1070.843,1348.50
1071.781,1374.25
1072.720,1348.25
1073.658,1347.75
1074.595,1377.75
1075.533,1374.00
1076.470,1349.75
1077.407,1340.75
1078.344,1353.75
1079.281,1394.50
1080.217,1335.25
1081.154,1356.75
1082.091,1360.25
1083.027,1359.75
1083.964,1329.25
1084.900,1386.00
1085.836,1412.00
1086.772,1340.75
1087.708,1370.00
1088.644,1352.00
1089.580,1367.25
1090.515,1404.00
1091.451,1338.00
1092.388,1306.25
1093.324,1328.00
1094.259,1347.50
1095.194,1339.50
1096.129,1331.25
1097.064,1324.75
1097.999,1304.25
1098.934,1325.25
1099.869,1356.50
1100.803,1324.00
1101.738,1311.00
1102.672,1317.00
1103.607,1311.25
1104.541,1288.25
1105.475,1310.75
1106.409,1294.50
1107.343,1259.50
1108.277,1255.25
1109.210,1226.00
1110.144,1251.25
1111.078,1272.25
1112.011,1254.00
1112.944,1217.50
1113.878,1311.75
1114.811,1227.00
1115.744,1256.25
1116.678,1242.75
1117.611,1204.50
1118.544,1214.25
1119.477,1169.50
1120.409,1228.25
1121.342,1231.00
1122.274,1222.75
1123.206,1170.75
1124.138,1181.50
1125.070,1169.25
1126.002,1155.25
1126.934,1134.25
1127.866,1173.00
1128.798,1159.50
1129.729,1192.25
1130.661,1136.50
1131.592,1191.25
1132.523,1101.25
1133.454,1130.25
1134.385,1135.50
1135.317,1117.25
1136.247,1136.25
1137.178,1110.75
1138.109,1106.75
1139.039,1087.50
1139.970,1121.50
1140.900,1135.25
1141.831,1116.25
1142.761,1112.00
1143.691,1127.50
1144.621,1122.75
1145.551,1120.25
1146.480,1067.25
1147.410,1094.25
1148.340,1082.00
1149.269,1074.00
1150.199,1088.00
1151.128,1071.00
1152.057,1091.00
1152.979,1061.25
1153.898,1097.50
1154.819,1106.75
1155.739,1096.50
1156.658,1092.75
1157.579,1058.75
1158.498,1044.25
1159.419,1076.00
1160.338,1062.50
1161.256,1059.00
1162.177,1076.50
1163.095,1045.00
1164.016,1076.25
1164.934,1040.75
1165.852,1029.50
1166.772,1032.75
1167.690,1081.50
1168.610,1070.75
1169.528,1073.50
1170.446,1020.75
1171.365,1051.75
1172.283,1037.50
1173.202,1007.75
1174.120,1084.25
1175.037,1027.00
1175.956,998.00
1176.873,1016.75
1177.792,1009.75
1178.709,1046.00
1179.626,1043.50
1180.544,1011.50
1181.461,1034.25
1182.379,993.50
1183.296,988.50
1184.212,1028.75
1185.130,1069.00
1186.046,1024.00
1186.962,1012.50
1187.880,1019.75
1188.796,1015.50
1189.714,993.25
1190.629,1008.75
1191.545,972.25
1192.462,1020.75
1193.378,1006.50
1194.295,1035.50
1195.210,1033.75
1196.125,1020.25
1197.042,1041.75
1197.957,976.25
1198.872,1032.25
1199.788,998.00
1200.703,986.00
1201.619,1008.25
1202.534,1023.50
1203.448,1014.00
1204.364,1040.50
1205.278,992.00
1206.192,1039.00
1207.108,975.75
1208.022,975.00
1208.938,1053.00
1209.851,989.75
1210.765,978.25
1211.680,1024.50
1212.594,997.50
1213.507,985.50
1214.422,997.25
1215.335,990.25
1216.248,981.50
1217.163,1049.75
1218.076,983.00
1218.990,1082.75
1219.903,1001.00
1220.816,1011.75
1221.730,1043.00
1222.642,995.00
1223.554,1014.25
1224.469,1011.75
1225.380,1029.50
1226.292,1036.25
1227.206,1020.75
1228.118,1078.50
1229.032,1024.25
1229.943,1024.50
1230.855,1020.50
1231.768,1032.75
1232.679,1025.25
1233.590,1027.25
1234.503,1049.75
1235.414,1031.75
1236.325,1056.75
1237.238,1023.00
1238.149,1028.50
1239.059,1045.75
1239.972,1039.25
1240.882,1016.50
1241.793,1053.50
1242.705,1030.75
1243.615,1022.75
1244.525,986.00
1245.437,1027.75
1246.347,1032.50
1247.259,1020.25
1248.168,1025.75
1249.078,1051.25
1249.989,1023.00
1250.899,1031.25
1251.808,1057.00
1252.719,1042.00
1253.628,1067.25
1254.537,1025.75
1255.448,1047.75
1256.357,1040.50
1257.266,1041.50
1258.176,1045.00
1259.085,1040.75
1259.993,1044.50
1260.904,1038.50
1261.812,1027.50
1262.720,1058.75
1263.630,1045.00
1264.538,1056.50
1265.446,1073.50
1266.356,1043.75
1267.263,1013.50
1268.171,1068.75
1269.080,1085.75
1269.988,1081.25
1270.895,1051.00
1271.804,1029.50
1272.711,1032.75
1273.619,1066.25
1274.527,1033.00
1275.434,1018.75
1276.341,1068.50
1277.248,1036.75
1278.156,1071.00
1279.063,1032.50
1279.969,1038.25
1280.877,1021.00
1281.783,1022.75
1282.690,1041.75
1283.598,1101.50
1284.503,1078.25
1285.409,1054.50
1286.317,1028.50
1287.223,1019.75
1288.128,1013.50
1289.036,1074.75
1289.941,1051.75
1290.846,1004.25
1291.751,1009.00
1292.658,1032.00
1293.563,974.75
1294.468,1022.50
1295.375,1038.25
1296.280,1019.50
1297.184,1081.50
1298.091,1010.00
1298.995,1057.50
1299.900,999.25
1300.806,1017.50
1301.710,1001.50
1302.614,1057.50
1303.518,1008.50
1304.424,990.25
1305.327,991.75
1306.231,983.50
1307.137,971.00
1308.040,1012.25
1308.943,1033.00
1309.847,975.75
1310.752,992.25
1311.655,1054.25
1312.558,977.50
1313.463,966.50
1314.366,986.75
1315.269,987.50
1316.171,977.75
1317.076,931.25
1317.978,954.75
1318.881,933.75
1319.785,955.25
1320.687,979.25
1321.589,937.25
1322.491,966.00
1323.395,940.25
1324.297,990.25
1325.198,963.50
