RamanScope Measure Spectrum Data V3.72

<< MEASURE CONDITION >>
Exposure Type,Aver
Exposure Time [sec],20
Exposure Count,2
Measure Time,2024/02/15 21:26:58
Data Name,""
Data Comment,""
Rayleigh Wave[nm],532.0

<< SAMPLE SPECTRUM >>
Wave[dcm-1],No50
96.716,18.00
97.759,18.00
98.802,-3.50
99.846,31.00
100.886,48.00
101.929,9.00
102.972,-3.00
104.015,-3.00
105.057,-6.00
106.100,-23.50
107.142,31.50
108.184,0.00
109.226,-16.00
110.268,-4.50
111.310,13.50
112.352,35.00
113.393,6.00
114.435,45.50
115.476,18.50
116.517,-4.50
117.558,19.00
118.599,-1.50
119.640,-26.50
120.681,64.50
121.722,13.00
122.762,-3.50
123.803,47.50
124.843,-66.50
125.883,6.50
126.923,12.50
127.963,20.50
129.001,-0.50
130.041,56.50
131.080,65.50
132.120,22.00
133.159,-3.00
134.199,62.50
135.238,12.00
136.277,56.50
137.316,15.00
138.355,-9.00
139.393,3.50
140.432,44.50
141.470,-14.50
142.509,21.00
143.547,55.50
144.585,118.00
145.623,107.50
146.661,128.00
147.699,169.00
148.736,257.00
149.774,298.50
150.811,379.50
151.849,461.50
152.886,602.00
153.923,744.00
154.960,880.00
155.997,1142.50
157.034,1326.50
158.072,1554.00
159.109,1709.50
160.145,2050.00
161.182,2322.00
162.218,2496.00
163.254,2667.00
164.290,2891.00
165.326,3044.50
166.361,3207.50
167.397,3336.50
168.432,3364.50
169.468,3544.00
170.503,3685.50
171.538,3667.00
172.573,3664.00
173.608,3745.50
174.643,3836.00
175.677,3887.50
176.712,3986.00
177.746,4005.50
178.781,4109.50
179.815,4176.00
180.849,4239.50
181.883,4371.00
182.917,4355.50
183.951,4378.50
184.984,4384.50
186.020,4487.50
187.053,4578.50
188.087,4621.50
189.120,4466.50
190.153,4565.50
191.186,4597.00
192.219,4513.00
193.251,4455.00
194.284,4471.50
195.317,4403.00
196.349,4554.50
197.381,4420.50
198.413,4555.00
199.445,4572.00
200.477,4464.50
201.509,4617.50
202.543,4590.00
203.575,4548.00
204.606,4581.00
205.637,4716.00
206.669,4696.50
207.700,4720.00
208.731,4757.50
209.762,4882.00
210.792,4835.50
211.823,4872.00
212.854,4924.50
213.884,4918.00
214.914,4884.50
215.947,4983.00
216.977,5043.00
218.007,4975.50
219.037,5112.00
220.066,5096.50
221.096,5184.50
222.126,5144.50
223.155,5116.00
224.184,5210.50
225.214,5169.50
226.245,5194.50
227.274,5203.00
228.302,5166.50
229.331,5123.50
230.360,5162.00
231.388,5204.50
232.417,5122.00
233.445,5154.00
234.473,5068.00
235.501,5026.00
236.531,5037.50
237.559,4986.00
238.587,4953.50
239.614,4959.50
240.642,4925.50
241.669,4922.50
242.696,4904.50
243.724,4891.00
244.753,4882.50
245.780,4865.00
246.806,4916.50
247.833,4878.00
248.860,4911.00
249.886,4826.00
250.913,4805.50
251.939,4864.50
252.967,4763.00
253.993,4832.00
255.019,4829.00
256.045,4811.00
257.070,4913.50
258.096,4953.00
259.121,4909.00
260.147,4882.50
261.174,4895.00
262.199,4823.50
263.224,4857.50
264.249,4952.50
265.274,4897.00
266.298,4999.00
267.323,4998.00
268.349,4980.50
269.374,5000.00
270.398,5056.50
271.422,5078.50
272.446,4988.50
273.470,5094.50
274.496,5098.50
275.519,5054.50
276.543,5054.00
277.566,5049.00
278.589,5067.50
279.613,5130.00
280.636,5100.00
281.661,5119.50
282.684,5191.50
283.706,5111.00
284.729,5171.50
285.751,5082.00
286.774,5080.00
287.798,5067.00
288.820,5132.50
289.842,5054.50
290.864,5070.00
291.886,5000.50
292.910,5026.50
293.932,5026.50
294.953,5004.50
295.974,4932.00
296.996,5021.00
298.017,4931.00
299.040,4878.50
300.061,4880.50
301.082,4720.50
302.102,4769.50
303.123,4740.50
304.143,4740.00
305.166,4809.50
306.186,4759.50
307.206,4754.50
308.226,4738.00
309.246,4740.50
310.268,4635.00
311.288,4652.00
312.307,4638.50
313.327,4596.00
314.346,4577.50
315.368,4526.00
316.387,4478.00
317.406,4559.00
318.425,4562.50
319.443,4559.50
320.464,4561.50
321.483,4480.50
322.501,4589.50
323.520,4453.50
324.538,4448.00
325.558,4458.00
326.576,4498.00
327.594,4483.50
328.612,4535.50
329.629,4584.00
330.649,4530.00
331.666,4516.00
332.684,4558.50
333.701,4500.00
334.718,4480.50
335.737,4505.50
336.754,4452.00
337.771,4454.00
338.787,4486.50
339.806,4496.50
340.823,4510.00
341.839,4449.50
342.855,4523.50
343.871,4472.50
344.889,4444.00
345.905,4427.00
346.921,4454.00
347.937,4491.50
348.954,4367.50
349.970,4444.00
350.985,4404.50
352.000,4402.50
353.017,4419.50
354.032,4525.00
355.047,4434.50
356.062,4503.50
357.077,4461.00
358.093,4386.00
359.108,4391.50
360.122,4477.50
361.136,4335.50
362.152,4404.50
363.166,4381.50
364.180,4374.00
365.194,4438.00
366.210,4415.50
367.223,4446.50
368.237,4435.50
369.250,4373.00
370.265,4520.50
371.278,4479.50
372.291,4421.00
373.304,4465.00
374.319,4382.00
375.332,4439.00
376.344,4437.50
377.357,4396.50
378.371,4306.50
379.383,4436.50
380.395,4380.00
381.407,4381.00
382.421,4385.50
383.433,4460.00
384.445,4436.50
385.456,4486.00
386.470,4433.50
387.481,4515.00
388.492,4433.50
389.505,4406.50
390.516,4473.00
391.527,4424.00
392.538,4398.00
393.551,4455.50
394.561,4359.00
395.572,4398.50
396.582,4396.00
397.594,4426.00
398.604,4419.50
399.614,4336.00
400.624,4345.00
401.636,4353.00
402.646,4370.50
403.655,4379.50
404.667,4340.50
405.676,4396.50
406.685,4296.50
407.694,4356.00
408.705,4292.50
409.714,4278.00
410.723,4342.00
411.734,4337.00
412.742,4321.00
413.751,4296.50
414.759,4265.50
415.769,4226.00
416.777,4270.50
417.785,4235.50
418.795,4231.50
419.803,4205.50
420.811,4233.00
421.818,4251.50
422.828,4227.50
423.835,4232.50
424.842,4149.50
425.852,4244.50
426.859,4228.50
427.866,4176.00
428.874,4197.00
429.881,4135.00
430.888,4149.50
431.894,4193.50
432.902,4225.00
433.909,4208.00
434.915,4167.50
435.923,4135.00
436.929,4129.00
437.935,4173.50
438.942,4160.50
439.948,4081.50
440.953,4125.50
441.959,4109.00
442.966,4127.00
443.971,4151.00
444.976,4105.50
445.983,4100.00
446.988,4051.50
447.993,4089.00
448.999,4067.50
450.004,4077.00
451.008,4118.50
452.014,4113.00
453.019,4093.00
454.023,4081.50
455.029,4080.00
456.032,4034.50
457.036,4019.00
458.042,4031.00
459.045,4037.50
460.049,4033.50
461.052,4030.00
462.057,4109.50
463.060,4062.00
464.063,3992.50
465.068,4075.00
466.071,4001.50
467.073,4042.50
468.078,4056.00
469.080,3983.50
470.082,3996.00
471.087,4018.00
472.089,4025.00
473.091,3981.00
474.095,4050.50
475.096,3972.00
476.098,3953.50
477.101,3947.50
478.103,3973.00
479.104,4064.00
480.107,4014.50
481.108,3961.50
482.109,4001.00
483.112,3894.50
484.113,3849.00
485.114,3927.50
486.116,3968.50
487.117,3917.50
488.117,3959.50
489.119,3963.00
490.119,3927.50
491.121,3913.00
492.121,3894.50
493.121,3885.50
494.123,3877.50
495.122,3863.50
496.122,3842.50
497.123,3909.50
498.122,3908.50
499.121,3913.00
500.122,3835.50
501.121,3850.00
502.120,3783.50
503.121,3776.50
504.119,3754.00
505.118,3797.00
506.118,3771.00
507.117,3823.00
508.115,3761.50
509.115,3696.00
510.113,3736.50
511.112,3697.00
512.110,3744.50
513.108,3765.00
514.107,3668.00
515.105,3727.00
516.102,3720.00
517.101,3649.50
518.098,3632.50
519.095,3578.50
520.094,3640.00
521.091,3617.00
522.089,3609.00
523.086,3592.50
524.082,3638.00
525.081,3610.50
526.077,3607.50
527.073,3591.50
528.071,3608.00
529.067,3532.50
530.064,3576.50
531.060,3617.00
532.056,3553.50
533.053,3572.00
534.048,3559.00
535.044,3459.00
536.041,3483.00
537.036,3434.50
538.030,3534.00
539.027,3543.00
540.022,3553.50
541.019,3534.00
542.013,3486.50
543.007,3494.00
544.004,3411.50
544.998,3450.50
545.994,3495.00
546.988,3510.50
547.981,3482.00
548.977,3439.00
549.971,3425.00
550.964,3413.50
551.960,3416.50
552.953,3387.00
553.948,3372.00
554.941,3338.00
555.934,3426.00
556.929,3386.50
557.922,3452.00
558.916,3397.00
559.909,3353.50
560.901,3381.00
561.895,3321.50
562.888,3353.50
563.880,3284.00
564.874,3298.00
565.865,3338.50
566.859,3256.50
567.851,3200.00
568.842,3260.00
569.836,3218.00
570.827,3207.00
571.820,3237.50
572.811,3238.00
573.802,3206.00
574.795,3205.50
575.786,3191.50
576.779,3185.50
577.769,3141.50
578.760,3186.50
579.752,3141.50
580.742,3148.50
581.735,3119.00
582.725,3126.50
583.714,3089.50
584.706,3127.50
585.696,3075.50
586.688,3140.00
587.677,3081.00
588.667,3131.50
589.658,3054.00
590.647,3052.50
591.638,3034.00
592.627,2964.00
593.616,3063.50
594.607,3036.00
595.595,3039.00
596.586,2998.00
597.574,2998.00
598.562,2955.00
599.553,3023.50
600.541,2988.50
601.531,2917.50
602.519,2947.00
603.508,2946.00
604.496,2905.00
605.484,2922.50
606.473,2899.00
607.460,2840.50
608.450,2872.00
609.437,2911.50
610.424,2874.00
611.413,2908.00
612.400,2863.50
613.388,2762.50
614.375,2746.00
615.361,2816.00
616.350,2815.50
617.336,2768.00
618.324,2754.50
619.310,2746.50
620.298,2719.00
621.284,2710.50
622.270,2737.50
623.257,2756.00
624.243,2765.00
625.230,2730.00
626.216,2736.50
627.203,2734.00
628.188,2736.00
629.173,2654.50
630.160,2713.50
631.145,2623.00
632.131,2679.00
633.116,2628.50
634.102,2586.50
635.087,2639.00
636.071,2637.50
637.057,2606.00
638.041,2649.50
639.027,2632.50
640.011,2586.00
640.995,2591.00
641.980,2604.50
642.964,2626.50
643.949,2512.50
644.932,2569.50
645.918,2572.00
646.901,2545.00
647.886,2524.50
648.868,2495.00
649.851,2547.00
650.836,2515.00
651.818,2527.00
652.803,2451.00
653.785,2472.50
654.769,2481.50
655.751,2502.00
656.733,2480.50
657.717,2493.00
658.699,2474.50
659.683,2405.50
660.664,2390.50
661.648,2427.50
662.629,2467.00
663.611,2431.00
664.594,2447.50
665.575,2406.00
666.558,2416.50
667.539,2450.00
668.521,2438.50
669.502,2386.00
670.484,2386.00
671.465,2341.50
672.445,2317.50
673.427,2347.00
674.407,2381.50
675.390,2329.50
676.369,2332.00
677.351,2376.50
678.331,2332.00
679.312,2325.50
680.292,2302.50
681.271,2263.50
682.253,2242.50
683.232,2295.00
684.213,2349.00
685.192,2293.00
686.172,2297.50
687.151,2226.00
688.132,2308.00
689.110,2267.00
690.089,2312.00
691.069,2222.50
692.047,2261.00
693.027,2228.50
694.005,2263.50
694.985,2217.00
695.963,2219.00
696.943,2278.00
697.920,2210.00
698.898,2188.50
699.877,2275.50
700.854,2276.00
701.833,2248.00
702.810,2162.50
703.789,2197.50
704.766,2196.50
705.745,2221.00
706.721,2169.00
707.698,2176.50
708.676,2202.00
709.653,2144.00
710.631,2137.00
711.607,2154.00
712.585,2144.00
713.561,2210.00
714.539,2150.00
715.514,2129.50
716.492,2151.00
717.467,2107.50
718.443,2150.00
719.420,2082.00
720.395,2058.50
721.372,2098.00
722.347,2084.00
723.324,2132.00
724.298,2053.50
725.275,2104.00
726.250,2118.00
727.226,2018.00
728.200,2031.50
729.176,2042.50
730.151,2105.00
731.125,2062.50
732.100,2043.00
733.074,2069.00
734.050,1999.50
735.023,2006.00
735.999,2087.00
736.972,2094.50
737.947,2006.00
738.921,1977.00
739.896,1993.00
740.869,2031.00
741.841,1994.50
742.816,2049.00
743.789,1979.00
744.763,2076.00
745.736,2059.00
746.710,2033.00
747.682,2006.00
748.656,2028.50
749.628,2015.00
750.602,2020.00
751.574,1967.50
752.548,1983.50
753.519,2014.50
754.491,1965.50
755.464,1972.00
756.435,1996.50
757.408,1978.50
758.379,1940.50
759.352,1999.50
760.323,1946.50
761.296,2012.00
762.267,1911.50
763.239,1983.50
764.209,1929.00
765.182,1895.50
766.152,1949.00
767.124,1938.00
768.094,1941.50
769.064,1971.00
770.036,1903.00
771.005,1915.50
771.977,1873.00
772.947,1919.50
773.918,1813.50
774.887,1841.00
775.858,1889.00
776.827,1865.00
777.798,1921.50
778.767,1859.50
779.738,1839.00
780.707,1880.00
781.677,1864.00
782.646,1853.50
783.614,1882.50
784.584,1859.50
785.552,1815.50
786.522,1876.00
787.490,1799.00
788.460,1830.50
789.428,1890.50
790.397,1854.00
791.365,1846.50
792.334,1799.00
793.302,1809.00
794.271,1821.50
795.238,1840.50
796.207,1816.00
797.174,1789.00
798.143,1776.00
799.109,1757.00
800.076,1754.00
801.044,1797.00
802.011,1757.50
802.979,1831.50
803.945,1788.00
804.913,1824.50
805.879,1690.50
806.847,1793.50
807.813,1729.00
808.780,1797.00
809.746,1732.00
810.713,1725.00
811.678,1680.00
812.646,1680.50
813.611,1731.50
814.578,1748.00
815.543,1724.00
816.510,1640.50
817.474,1689.00
818.439,1695.50
819.405,1713.00
820.370,1671.00
821.336,1693.50
822.300,1719.00
823.266,1670.00
824.230,1715.50
825.196,1692.00
826.160,1714.50
827.126,1677.00
828.089,1692.00
829.055,1630.00
830.018,1716.50
830.983,1697.50
831.946,1645.00
832.911,1687.50
833.874,1659.50
834.837,1764.00
835.802,1730.50
836.765,1673.00
837.729,1650.50
838.691,1628.50
839.656,1727.00
840.618,1627.00
841.582,1700.50
842.544,1754.50
843.508,1648.00
844.470,1707.50
845.434,1710.00
846.395,1747.00
847.359,1716.50
848.320,1678.50
849.283,1661.00
850.245,1671.00
851.208,1710.50
852.169,1691.00
853.130,1677.00
854.092,1681.00
855.053,1726.50
856.016,1728.00
856.976,1733.50
857.938,1721.00
858.899,1692.00
859.861,1679.00
860.821,1696.00
861.783,1703.50
862.743,1695.50
863.704,1679.00
864.664,1717.50
865.626,1706.00
866.585,1705.50
867.546,1671.50
868.506,1764.50
869.467,1756.50
870.426,1752.50
871.387,1748.00
872.346,1683.00
873.304,1763.50
874.265,1737.00
875.223,1766.50
876.184,1762.50
877.142,1818.00
878.102,1832.50
879.060,1851.00
880.021,1778.00
880.978,1865.00
881.938,1826.00
882.896,1808.00
883.856,1850.00
884.813,1798.00
885.772,1832.50
886.730,1779.50
887.689,1809.00
888.646,1841.00
889.603,1890.50
890.562,1873.50
891.519,1914.50
892.477,1897.00
893.434,1893.00
894.392,1866.00
895.349,1869.00
896.307,1906.00
897.263,1919.50
898.221,1940.00
899.177,1893.50
900.135,1955.00
901.091,1858.00
902.048,1879.00
903.004,1956.00
903.961,1892.00
904.917,1954.00
905.874,1918.00
906.829,1932.00
907.784,1996.00
908.741,1998.00
909.696,1955.50
910.653,1991.50
911.607,1991.00
912.564,1974.50
913.518,2006.00
914.475,1998.50
915.429,1971.00
916.385,1999.00
917.339,1979.50
918.295,2027.00
919.249,2040.00
920.205,2052.50
921.158,2019.50
922.114,2022.00
923.067,2056.00
924.020,2058.50
924.976,2054.00
925.929,2075.00
926.884,2083.50
927.837,2066.00
928.791,2023.00
929.744,2077.50
930.699,2046.00
931.651,2075.00
932.606,2058.50
933.558,2091.50
934.512,2083.50
935.464,2025.50
936.418,2111.00
937.370,2110.50
938.322,2134.00
939.276,2106.00
940.227,2193.50
941.181,2142.50
942.132,2139.00
943.085,2092.50
944.036,2154.00
944.990,2094.50
945.941,2115.50
946.893,2126.00
947.844,2108.00
948.797,2134.50
949.747,2093.00
950.700,2125.50
951.650,2117.50
952.601,2106.00
953.553,2100.00
954.503,2125.50
955.455,2153.00
956.405,2064.50
957.356,2139.00
958.306,2060.50
959.258,2125.00
960.207,2060.00
961.158,2057.00
962.108,2097.00
963.059,2066.00
964.008,2089.50
964.959,1972.50
965.908,2087.00
966.856,2001.00
967.807,2090.50
968.756,1999.50
969.706,2052.50
970.654,2069.50
971.605,2085.50
972.553,2053.00
973.503,1942.50
974.451,1951.00
975.401,1999.50
976.348,1987.50
977.296,1993.00
978.246,1973.00
979.193,1968.50
980.142,1980.50
981.090,1968.00
982.039,1947.00
982.986,1991.50
983.935,1984.00
984.882,2002.00
985.830,1929.50
986.777,1932.00
987.725,1913.50
988.672,1880.00
989.618,1909.00
990.567,1950.50
991.513,1905.50
992.461,1951.50
993.407,1867.00
994.354,1898.00
995.300,1881.00
996.248,1844.00
997.193,1820.50
998.141,1864.00
999.086,1877.50
1000.031,1858.00
1000.978,1791.00
1001.924,1879.50
1002.870,1807.50
1003.815,1856.50
1004.762,1807.50
1005.707,1799.50
1006.653,1808.00
1007.598,1752.50
1008.542,1755.50
1009.488,1816.50
1010.432,1749.50
1011.378,1721.00
1012.322,1763.50
1013.268,1763.50
1014.212,1744.50
1015.157,1802.00
1016.101,1729.00
1017.046,1750.50
1017.990,1712.00
1018.933,1696.00
1019.878,1734.50
1020.821,1706.50
1021.766,1688.00
1022.709,1689.00
1023.654,1685.50
1024.596,1739.00
1025.541,1694.50
1026.483,1715.00
1027.425,1672.50
1028.370,1595.00
1029.312,1703.50
1030.256,1637.50
1031.198,1733.50
1032.141,1669.00
1033.083,1650.00
1034.027,1601.00
1034.968,1636.00
1035.910,1638.50
1036.853,1667.50
1037.794,1630.50
1038.738,1614.50
1039.679,1601.50
1040.621,1565.00
1041.562,1564.50
1042.503,1673.50
1043.446,1542.50
1044.386,1569.00
1045.329,1631.50
1046.269,1597.50
1047.211,1595.50
1048.151,1609.50
1049.093,1573.00
1050.033,1611.50
1050.973,1593.00
1051.915,1568.00
1052.854,1587.00
1053.796,1590.50
1054.735,1571.50
1055.677,1552.00
1056.616,1611.50
1057.555,1547.50
1058.496,1568.00
1059.435,1563.00
1060.376,1532.00
1061.315,1538.50
1062.255,1561.50
1063.194,1545.50
1064.132,1508.50
1065.073,1549.00
1066.011,1522.00
1066.951,1519.00
1067.889,1556.00
1068.829,1503.50
1069.767,1485.50
1070.705,1530.50
1071.644,1525.00
1072.582,1540.50
1073.521,1559.00
1074.459,1530.00
1075.398,1532.50
1076.335,1518.00
1077.272,1453.50
1078.211,1497.00
1079.148,1506.00
1080.087,1524.00
1081.023,1486.50
1081.962,1562.00
1082.898,1519.00
1083.835,1524.50
1084.773,1497.50
1085.709,1528.50
1086.647,1498.00
1087.583,1433.00
1088.519,1451.50
1089.457,1518.00
1090.392,1510.00
1091.330,1458.50
1092.266,1506.50
1093.203,1484.50
1094.138,1519.00
1095.073,1542.50
1096.010,1429.00
1096.945,1504.00
1097.882,1481.50
1098.817,1428.50
1099.752,1504.00
1100.688,1450.00
1101.623,1479.50
1102.559,1444.00
1103.493,1454.00
1104.430,1447.00
1105.364,1504.00
1106.298,1461.00
1107.234,1461.50
1108.167,1429.50
1109.094,1419.50
1110.019,1454.50
1110.945,1370.50
1111.869,1416.00
1112.795,1423.50
1113.720,1421.50
1114.646,1434.50
1115.571,1393.00
1116.495,1413.00
1117.420,1394.50
1118.345,1431.50
1119.270,1402.00
1120.195,1393.50
1121.118,1445.00
1122.042,1369.50
1122.967,1353.50
1123.891,1329.00
1124.816,1383.00
1125.738,1388.50
1126.663,1361.00
1127.587,1370.00
1128.511,1320.50
1129.435,1404.00
1130.357,1332.50
1131.280,1378.00
1132.204,1326.50
1133.128,1346.00
1134.051,1311.50
1134.972,1274.50
1135.896,1377.50
1136.819,1354.00
1137.742,1392.00
1138.665,1350.50
1139.586,1375.00
1140.509,1352.50
1141.431,1316.00
1142.354,1285.00
1143.276,1326.00
1144.197,1269.00
1145.119,1297.50
1146.041,1356.50
1146.964,1312.00
1147.885,1323.50
1148.806,1272.00
1149.727,1279.00
1150.649,1324.50
1151.571,1286.50
1152.492,1247.00
1153.412,1291.00
1154.333,1271.50
1155.254,1258.50
1156.175,1279.00
1157.095,1279.00
1158.016,1233.00
1158.936,1253.50
1159.857,1269.00
1160.778,1255.00
1161.697,1240.00
1162.617,1248.00
1163.537,1268.50
1164.458,1280.00
1165.376,1269.00
1166.296,1291.50
1167.216,1279.00
1168.136,1268.50
1169.056,1257.00
1169.974,1181.00
1170.893,1276.00
1171.813,1239.00
1172.732,1206.00
1173.650,1227.50
1174.569,1333.50
1175.488,1285.00
1176.407,1295.50
1177.326,1227.00
1178.243,1267.50
1179.161,1243.50
1180.080,1246.00
1180.999,1165.50
1181.915,1228.00
1182.834,1237.00
1183.752,1219.50
1184.670,1228.00
1185.586,1211.00
1186.504,1168.00
1187.422,1206.00
1188.340,1236.00
1189.258,1186.50
1190.173,1185.00
1191.091,1200.50
1192.008,1233.50
1192.926,1194.00
1193.841,1173.50
1194.758,1194.50
1195.675,1194.00
1196.592,1194.00
1197.507,1166.00
1198.424,1195.00
1199.340,1177.50
1200.257,1171.00
1201.172,1197.50
1202.088,1181.00
1203.004,1173.00
1203.920,1182.00
1204.835,1227.00
1205.750,1180.00
1206.666,1221.50
1207.582,1177.00
1208.496,1145.00
1209.412,1178.50
1210.327,1187.00
1211.243,1185.00
1212.156,1214.00
1213.071,1186.00
1213.986,1134.50
1214.901,1177.50
1215.814,1150.00
1216.729,1185.00
1217.644,1181.00
1218.559,1158.00
1219.471,1151.00
1220.386,1157.00
1221.300,1197.00
1222.213,1202.50
1223.127,1184.00
1224.041,1126.50
1224.955,1168.50
1225.867,1205.00
1226.781,1196.50
1227.694,1226.50
1228.608,1171.00
1229.520,1194.00
1230.433,1241.50
1231.346,1172.00
1232.260,1177.50
1233.171,1153.50
1234.084,1173.00
1234.997,1183.50
1235.908,1195.50
1236.821,1149.50
1237.733,1137.00
1238.646,1159.50
1239.556,1166.50
1240.469,1148.00
1241.381,1160.50
1242.293,1183.50
1243.203,1143.00
1244.115,1201.50
1245.027,1118.00
1245.937,1145.00
1246.849,1186.00
1247.761,1151.50
1248.672,1216.00
1249.582,1157.50
1250.493,1095.00
1251.404,1169.00
1252.313,1148.50
1253.225,1160.50
1254.135,1131.00
1255.046,1150.00
1255.955,1174.00
1256.866,1118.00
1257.777,1178.50
1258.685,1202.50
1259.596,1198.50
1260.506,1152.50
1261.416,1178.00
1262.324,1201.00
1263.234,1139.50
1264.144,1125.50
1265.052,1165.50
1265.962,1152.50
1266.872,1225.00
1267.779,1168.50
1268.689,1154.50
1269.598,1153.00
1270.507,1148.00
1271.415,1190.50
1272.324,1250.50
1273.233,1181.00
1274.140,1243.50
1275.048,1129.00
1275.957,1170.50
1276.864,1215.50
1277.772,1159.00
1278.681,1183.50
1279.587,1134.50
1280.496,1127.50
1281.404,1167.00
1282.312,1188.00
1283.218,1186.00
1284.126,1229.00
1285.033,1133.00
1285.939,1184.50
1286.847,1147.50
1287.754,1137.50
