RamanScope Measure Spectrum Data V3.72

<< MEASURE CONDITION >>
Exposure Type,Aver
Exposure Time [sec],20
Exposure Count,2
Measure Time,2024/02/15 21:20:03
Data Name,""
Data Comment,""
Rayleigh Wave[nm],532.0

<< SAMPLE SPECTRUM >>
Wave[dcm-1],No44
96.716,16.00
97.759,18.50
98.802,42.00
99.846,-19.00
100.886,28.00
101.929,0.50
102.972,1.00
104.015,1.50
105.057,34.00
106.100,23.50
107.142,-19.00
108.184,22.00
109.226,-19.00
110.268,45.50
111.310,40.00
112.352,30.00
113.393,11.50
114.435,-24.50
115.476,49.50
116.517,-36.50
117.558,24.50
118.599,-8.50
119.640,42.50
120.681,41.00
121.722,-9.00
122.762,9.50
123.803,17.50
124.843,43.00
125.883,48.50
126.923,15.50
127.963,5.50
129.001,-25.50
130.041,10.00
131.080,41.50
132.120,57.00
133.159,3.00
134.199,0.50
135.238,28.00
136.277,-24.50
137.316,29.50
138.355,42.00
139.393,-12.00
140.432,-8.00
141.470,-43.50
142.509,53.50
143.547,38.50
144.585,40.00
145.623,31.00
146.661,107.50
147.699,93.00
148.736,154.50
149.774,255.00
150.811,208.00
151.849,370.00
152.886,463.50
153.923,527.50
154.960,686.50
155.997,857.50
157.034,972.00
158.072,1105.50
159.109,1295.50
160.145,1476.50
161.182,1672.50
162.218,1818.00
163.254,1912.00
164.290,2163.50
165.326,2292.00
166.361,2372.00
167.397,2428.00
168.432,2507.50
169.468,2591.50
170.503,2720.00
171.538,2740.50
172.573,2763.00
173.608,2827.00
174.643,2803.00
175.677,2826.00
176.712,2915.00
177.746,2953.00
178.781,3059.50
179.815,3094.50
180.849,3174.50
181.883,3208.00
182.917,3240.50
183.951,3270.00
184.984,3323.50
186.020,3377.00
187.053,3375.50
188.087,3341.50
189.120,3297.00
190.153,3228.00
191.186,3239.50
192.219,3199.00
193.251,3200.00
194.284,3111.00
195.317,3131.50
196.349,3220.00
197.381,3148.50
198.413,3117.50
199.445,3099.00
200.477,3150.50
201.509,3151.50
202.543,3174.00
203.575,3176.50
204.606,3175.00
205.637,3307.50
206.669,3256.00
207.700,3265.00
208.731,3292.00
209.762,3364.00
210.792,3333.50
211.823,3283.00
212.854,3336.50
213.884,3353.00
214.914,3406.00
215.947,3434.50
216.977,3363.50
218.007,3477.00
219.037,3515.50
220.066,3517.50
221.096,3513.50
222.126,3560.50
223.155,3515.00
224.184,3638.00
225.214,3622.50
226.245,3623.50
227.274,3697.50
228.302,3679.50
229.331,3664.00
230.360,3687.50
231.388,3735.00
232.417,3604.00
233.445,3651.50
234.473,3577.00
235.501,3610.00
236.531,3555.00
237.559,3564.00
238.587,3530.50
239.614,3510.00
240.642,3458.00
241.669,3488.00
242.696,3461.50
243.724,3443.00
244.753,3375.50
245.780,3395.00
246.806,3371.50
247.833,3384.00
248.860,3344.00
249.886,3359.50
250.913,3313.50
251.939,3346.50
252.967,3319.00
253.993,3346.00
255.019,3347.50
256.045,3413.50
257.070,3407.00
258.096,3396.50
259.121,3380.00
260.147,3428.00
261.174,3366.50
262.199,3419.00
263.224,3334.00
264.249,3378.00
265.274,3341.00
266.298,3400.00
267.323,3430.00
268.349,3395.50
269.374,3405.00
270.398,3379.50
271.422,3439.50
272.446,3410.50
273.470,3442.50
274.496,3342.50
275.519,3399.00
276.543,3433.00
277.566,3390.00
278.589,3510.00
279.613,3501.00
280.636,3513.50
281.661,3528.50
282.684,3474.00
283.706,3580.00
284.729,3532.50
285.751,3560.00
286.774,3431.50
287.798,3534.50
288.820,3576.00
289.842,3589.50
290.864,3516.50
291.886,3584.00
292.910,3527.50
293.932,3480.00
294.953,3533.00
295.974,3480.00
296.996,3476.50
298.017,3405.50
299.040,3322.50
300.061,3360.00
301.082,3262.50
302.102,3329.50
303.123,3256.00
304.143,3251.50
305.166,3228.50
306.186,3213.50
307.206,3252.00
308.226,3161.50
309.246,3118.50
310.268,3085.50
311.288,3003.50
312.307,3026.00
313.327,2991.00
314.346,3022.50
315.368,2968.50
316.387,2981.50
317.406,2932.50
318.425,2944.00
319.443,2972.50
320.464,2933.50
321.483,2910.00
322.501,2874.00
323.520,2813.00
324.538,2859.50
325.558,2860.00
326.576,2806.50
327.594,2815.00
328.612,2864.00
329.629,2879.00
330.649,2790.50
331.666,2791.50
332.684,2791.00
333.701,2829.00
334.718,2752.00
335.737,2741.50
336.754,2746.50
337.771,2728.00
338.787,2738.50
339.806,2715.00
340.823,2762.50
341.839,2713.00
342.855,2698.50
343.871,2767.50
344.889,2771.50
345.905,2696.00
346.921,2646.50
347.937,2645.50
348.954,2687.00
349.970,2656.00
350.985,2735.50
352.000,2649.50
353.017,2669.00
354.032,2715.50
355.047,2734.50
356.062,2711.50
357.077,2641.00
358.093,2586.50
359.108,2650.50
360.122,2643.00
361.136,2611.00
362.152,2564.00
363.166,2599.00
364.180,2627.50
365.194,2685.00
366.210,2583.50
367.223,2600.50
368.237,2590.50
369.250,2637.00
370.265,2634.00
371.278,2581.50
372.291,2598.50
373.304,2652.50
374.319,2640.50
375.332,2625.50
376.344,2730.00
377.357,2638.00
378.371,2600.50
379.383,2636.50
380.395,2607.50
381.407,2586.00
382.421,2654.50
383.433,2635.00
384.445,2689.50
385.456,2667.50
386.470,2640.00
387.481,2661.50
388.492,2666.50
389.505,2643.50
390.516,2663.50
391.527,2661.00
392.538,2673.00
393.551,2688.00
394.561,2730.00
395.572,2719.00
396.582,2692.50
397.594,2735.50
398.604,2672.50
399.614,2679.00
400.624,2688.00
401.636,2711.50
402.646,2703.00
403.655,2710.50
404.667,2745.00
405.676,2698.50
406.685,2785.50
407.694,2715.50
408.705,2653.50
409.714,2619.00
410.723,2686.00
411.734,2715.50
412.742,2663.50
413.751,2716.50
414.759,2622.00
415.769,2642.00
416.777,2619.50
417.785,2661.00
418.795,2646.00
419.803,2588.50
420.811,2558.00
421.818,2593.50
422.828,2572.00
423.835,2613.50
424.842,2579.50
425.852,2548.00
426.859,2502.00
427.866,2544.50
428.874,2579.50
429.881,2545.00
430.888,2573.00
431.894,2532.00
432.902,2578.50
433.909,2641.50
434.915,2509.00
435.923,2532.50
436.929,2533.00
437.935,2483.50
438.942,2506.00
439.948,2531.00
440.953,2529.50
441.959,2533.50
442.966,2526.00
443.971,2550.50
444.976,2548.00
445.983,2484.00
446.988,2459.00
447.993,2508.00
448.999,2455.50
450.004,2488.50
451.008,2478.00
452.014,2551.50
453.019,2566.00
454.023,2516.50
455.029,2542.50
456.032,2475.00
457.036,2500.50
458.042,2485.00
459.045,2517.50
460.049,2428.50
461.052,2536.50
462.057,2515.50
463.060,2490.00
464.063,2510.50
465.068,2517.50
466.071,2552.50
467.073,2534.00
468.078,2506.50
469.080,2510.00
470.082,2518.00
471.087,2516.50
472.089,2569.00
473.091,2554.00
474.095,2500.00
475.096,2479.50
476.098,2490.00
477.101,2518.50
478.103,2577.50
479.104,2523.50
480.107,2513.00
481.108,2533.50
482.109,2578.00
483.112,2550.00
484.113,2512.00
485.114,2537.50
486.116,2546.50
487.117,2525.50
488.117,2550.50
489.119,2548.00
490.119,2553.00
491.121,2538.00
492.121,2494.00
493.121,2472.50
494.123,2484.00
495.122,2550.00
496.122,2541.00
497.123,2529.00
498.122,2564.00
499.121,2511.00
500.122,2526.50
501.121,2532.00
502.120,2489.50
503.121,2505.00
504.119,2505.50
505.118,2467.50
506.118,2454.50
507.117,2554.50
508.115,2485.50
509.115,2506.50
510.113,2519.00
511.112,2459.00
512.110,2456.00
513.108,2539.50
514.107,2483.00
515.105,2489.00
516.102,2387.50
517.101,2473.00
518.098,2441.50
519.095,2445.50
520.094,2399.00
521.091,2455.50
522.089,2374.50
523.086,2409.00
524.082,2412.50
525.081,2407.00
526.077,2467.00
527.073,2427.00
528.071,2448.00
529.067,2409.50
530.064,2518.50
531.060,2473.50
532.056,2477.00
533.053,2383.00
534.048,2410.00
535.044,2422.00
536.041,2424.00
537.036,2422.00
538.030,2409.50
539.027,2427.00
540.022,2501.00
541.019,2476.00
542.013,2448.00
543.007,2410.50
544.004,2395.50
544.998,2427.00
545.994,2574.00
546.988,2447.00
547.981,2404.00
548.977,2441.50
549.971,2470.00
550.964,2423.00
551.960,2420.50
552.953,2448.00
553.948,2415.50
554.941,2438.00
555.934,2449.50
556.929,2406.50
557.922,2413.00
558.916,2472.50
559.909,2382.50
560.901,2413.00
561.895,2404.50
562.888,2489.00
563.880,2464.00
564.874,2437.50
565.865,2409.00
566.859,2420.00
567.851,2389.00
568.842,2424.50
569.836,2371.00
570.827,2439.00
571.820,2413.50
572.811,2327.00
573.802,2419.50
574.795,2342.50
575.786,2354.00
576.779,2370.00
577.769,2434.50
578.760,2308.50
579.752,2344.00
580.742,2391.00
581.735,2393.00
582.725,2377.00
583.714,2307.50
584.706,2356.50
585.696,2386.00
586.688,2385.00
587.677,2353.50
588.667,2354.00
589.658,2312.50
590.647,2352.50
591.638,2350.00
592.627,2345.50
593.616,2349.00
594.607,2295.00
595.595,2407.50
596.586,2329.50
597.574,2354.00
598.562,2342.00
599.553,2337.00
600.541,2318.00
601.531,2358.00
602.519,2351.50
603.508,2327.50
604.496,2278.00
605.484,2284.50
606.473,2289.50
607.460,2289.00
608.450,2258.00
609.437,2283.00
610.424,2315.00
611.413,2317.00
612.400,2272.50
613.388,2259.00
614.375,2328.50
615.361,2286.00
616.350,2223.00
617.336,2204.00
618.324,2209.00
619.310,2238.00
620.298,2202.50
621.284,2213.50
622.270,2222.00
623.257,2220.50
624.243,2250.50
625.230,2234.00
626.216,2197.50
627.203,2202.00
628.188,2197.50
629.173,2133.50
630.160,2149.50
631.145,2127.00
632.131,2103.50
633.116,2148.50
634.102,2112.00
635.087,2174.50
636.071,2092.50
637.057,2107.50
638.041,2094.50
639.027,2079.00
640.011,2049.50
640.995,2060.50
641.980,1989.00
642.964,2025.50
643.949,2013.50
644.932,1971.50
645.918,2081.00
646.901,1994.50
647.886,2019.00
648.868,2060.50
649.851,1956.50
650.836,2026.50
651.818,1897.50
652.803,1943.00
653.785,1935.00
654.769,2006.00
655.751,1948.00
656.733,1924.50
657.717,1856.50
658.699,1934.00
659.683,1906.00
660.664,1837.00
661.648,1887.50
662.629,1888.50
663.611,1848.00
664.594,1790.00
665.575,1837.00
666.558,1895.00
667.539,1797.50
668.521,1859.50
669.502,1808.50
670.484,1863.50
671.465,1807.00
672.445,1809.50
673.427,1834.00
674.407,1829.50
675.390,1772.00
676.369,1760.50
677.351,1738.50
678.331,1755.00
679.312,1796.50
680.292,1769.50
681.271,1800.50
682.253,1738.00
683.232,1701.50
684.213,1732.50
685.192,1721.00
686.172,1793.00
687.151,1720.00
688.132,1737.00
689.110,1747.00
690.089,1721.00
691.069,1704.00
692.047,1695.50
693.027,1699.50
694.005,1739.50
694.985,1644.00
695.963,1684.50
696.943,1591.00
697.920,1648.00
698.898,1626.00
699.877,1565.00
700.854,1585.50
701.833,1591.50
702.810,1628.00
703.789,1554.00
704.766,1612.00
705.745,1637.50
706.721,1544.00
707.698,1557.50
708.676,1518.00
709.653,1617.00
710.631,1547.50
711.607,1572.00
712.585,1512.00
713.561,1565.50
714.539,1497.00
715.514,1574.00
716.492,1487.00
717.467,1494.50
718.443,1521.50
719.420,1499.00
720.395,1496.00
721.372,1469.50
722.347,1511.00
723.324,1498.00
724.298,1480.50
725.275,1430.50
726.250,1466.50
727.226,1455.50
728.200,1477.50
729.176,1452.50
730.151,1473.00
731.125,1482.50
732.100,1464.00
733.074,1429.00
734.050,1383.50
735.023,1380.50
735.999,1445.00
736.972,1416.50
737.947,1367.00
738.921,1396.00
739.896,1386.50
740.869,1420.00
741.841,1397.50
742.816,1395.00
743.789,1407.00
744.763,1403.50
745.736,1396.50
746.710,1408.00
747.682,1428.50
748.656,1368.00
749.628,1366.50
750.602,1357.00
751.574,1369.50
752.548,1366.00
753.519,1328.50
754.491,1321.50
755.464,1313.50
756.435,1337.50
757.408,1352.50
758.379,1413.00
759.352,1374.00
760.323,1298.50
761.296,1324.50
762.267,1309.00
763.239,1309.50
764.209,1321.00
765.182,1315.00
766.152,1260.00
767.124,1322.00
768.094,1314.00
769.064,1349.50
770.036,1267.50
771.005,1240.00
771.977,1280.00
772.947,1273.50
773.918,1268.50
774.887,1313.00
775.858,1260.00
776.827,1253.50
777.798,1257.50
778.767,1223.50
779.738,1264.00
780.707,1231.00
781.677,1213.00
782.646,1237.00
783.614,1195.00
784.584,1263.50
785.552,1256.50
786.522,1194.00
787.490,1237.00
788.460,1188.50
789.428,1237.00
790.397,1265.00
791.365,1151.50
792.334,1221.00
793.302,1189.50
794.271,1184.00
795.238,1129.00
796.207,1152.50
797.174,1147.50
798.143,1238.50
799.109,1197.50
800.076,1165.50
801.044,1203.00
802.011,1155.00
802.979,1141.00
803.945,1157.00
804.913,1140.00
805.879,1138.00
806.847,1122.00
807.813,1191.00
808.780,1180.50
809.746,1129.50
810.713,1099.00
811.678,1142.50
812.646,1125.00
813.611,1114.00
814.578,1112.50
815.543,1096.50
816.510,1085.00
817.474,1160.00
818.439,1120.50
819.405,1108.00
820.370,1131.50
821.336,1125.00
822.300,1044.50
823.266,1155.00
824.230,1132.50
825.196,1119.50
826.160,1138.00
827.126,1044.50
828.089,1062.50
829.055,1104.00
830.018,1127.50
830.983,1121.50
831.946,1155.00
832.911,1088.00
833.874,1088.00
834.837,1088.00
835.802,1143.50
836.765,1143.00
837.729,1102.00
838.691,1087.00
839.656,1151.50
840.618,1077.00
841.582,1139.00
842.544,1123.00
843.508,1145.00
844.470,1143.50
845.434,1134.00
846.395,1139.50
847.359,1059.50
848.320,1112.50
849.283,1154.00
850.245,1141.50
851.208,1161.00
852.169,1092.50
853.130,1121.50
854.092,1131.50
855.053,1190.00
856.016,1164.50
856.976,1152.50
857.938,1170.00
858.899,1135.50
859.861,1166.00
860.821,1191.00
861.783,1174.50
862.743,1207.00
863.704,1141.50
864.664,1231.50
865.626,1204.00
866.585,1182.50
867.546,1214.50
868.506,1155.50
869.467,1136.50
870.426,1177.00
871.387,1171.00
872.346,1153.00
873.304,1213.00
874.265,1185.50
875.223,1180.00
876.184,1143.50
877.142,1163.00
878.102,1195.50
879.060,1192.50
880.021,1280.50
880.978,1172.00
881.938,1193.50
882.896,1215.00
883.856,1230.00
884.813,1205.50
885.772,1187.50
886.730,1197.00
887.689,1176.00
888.646,1218.00
889.603,1175.00
890.562,1176.50
891.519,1244.50
892.477,1229.50
893.434,1202.00
894.392,1219.50
895.349,1241.50
896.307,1201.00
897.263,1166.50
898.221,1284.00
899.177,1201.00
900.135,1229.00
901.091,1255.00
902.048,1203.50
903.004,1167.50
903.961,1186.50
904.917,1212.50
905.874,1153.00
906.829,1203.50
907.784,1222.50
908.741,1165.50
909.696,1200.00
910.653,1216.50
911.607,1149.50
912.564,1256.00
913.518,1198.50
914.475,1264.00
915.429,1228.50
916.385,1204.00
917.339,1160.00
918.295,1183.00
919.249,1202.50
920.205,1181.00
921.158,1197.50
922.114,1204.50
923.067,1194.00
924.020,1212.50
924.976,1192.50
925.929,1278.50
926.884,1174.00
927.837,1151.00
928.791,1166.00
929.744,1231.00
930.699,1193.50
931.651,1204.50
932.606,1236.50
933.558,1191.50
934.512,1177.00
935.464,1195.00
936.418,1215.50
937.370,1162.50
938.322,1185.00
939.276,1222.00
940.227,1129.50
941.181,1159.00
942.132,1175.00
943.085,1188.00
944.036,1152.00
944.990,1177.50
945.941,1191.50
946.893,1200.00
947.844,1190.00
948.797,1169.00
949.747,1171.50
950.700,1190.00
951.650,1222.00
952.601,1173.50
953.553,1161.00
954.503,1172.50
955.455,1218.00
956.405,1149.50
957.356,1192.00
958.306,1149.00
959.258,1198.50
960.207,1090.50
961.158,1153.50
962.108,1176.50
963.059,1131.50
964.008,1243.00
964.959,1115.50
965.908,1191.50
966.856,1157.00
967.807,1113.50
968.756,1153.00
969.706,1160.50
970.654,1162.50
971.605,1083.00
972.553,1159.50
973.503,1169.00
974.451,1125.00
975.401,1140.50
976.348,1134.50
977.296,1108.00
978.246,1172.00
979.193,1065.50
980.142,1097.50
981.090,1134.00
982.039,1116.50
982.986,1167.00
983.935,1163.50
984.882,1152.00
985.830,1149.50
986.777,1096.00
987.725,1149.00
988.672,1076.00
989.618,1127.50
990.567,1116.00
991.513,1097.50
992.461,1151.50
993.407,1124.50
994.354,1146.00
995.300,1114.50
996.248,1115.00
997.193,1151.00
998.141,1147.50
999.086,1101.50
1000.031,1164.50
1000.978,1125.50
1001.924,1161.50
1002.870,1057.00
1003.815,1105.00
1004.762,1108.50
1005.707,1067.50
1006.653,1144.00
1007.598,1073.00
1008.542,1104.50
1009.488,1052.50
1010.432,1093.00
1011.378,1087.50
1012.322,1020.50
1013.268,1078.50
1014.212,1087.50
1015.157,1092.00
1016.101,1080.00
1017.046,1106.00
1017.990,1130.00
1018.933,1059.50
1019.878,1131.00
1020.821,1099.00
1021.766,1085.00
1022.709,1053.50
1023.654,1086.50
1024.596,1039.50
1025.541,1103.00
1026.483,1087.50
1027.425,1117.50
1028.370,1040.50
1029.312,1111.00
1030.256,1084.50
1031.198,1059.50
1032.141,1054.50
1033.083,1088.00
1034.027,1132.50
1034.968,1084.00
1035.910,1126.50
1036.853,1082.00
1037.794,1030.50
1038.738,1107.50
1039.679,1108.00
1040.621,1145.50
1041.562,1133.50
1042.503,1064.50
1043.446,1061.50
1044.386,1069.50
1045.329,1100.50
1046.269,1124.00
1047.211,1087.00
1048.151,1091.00
1049.093,1055.00
1050.033,1104.50
1050.973,1076.50
1051.915,1092.50
1052.854,1120.50
1053.796,1097.00
1054.735,1072.00
1055.677,1116.00
1056.616,1103.00
1057.555,1065.50
1058.496,1096.00
1059.435,1126.50
1060.376,1081.50
1061.315,1099.50
1062.255,1141.00
1063.194,1110.50
1064.132,1100.00
1065.073,1132.50
1066.011,1069.00
1066.951,1097.50
1067.889,1182.00
1068.829,1132.50
1069.767,1115.50
1070.705,1109.00
1071.644,1111.50
1072.582,1119.50
1073.521,1150.50
1074.459,1081.00
1075.398,1104.00
1076.335,1108.00
1077.272,1086.00
1078.211,1088.00
1079.148,1108.00
1080.087,1137.00
1081.023,1087.50
1081.962,1146.00
1082.898,1119.50
1083.835,1132.00
1084.773,1106.50
1085.709,1142.50
1086.647,1196.50
1087.583,1116.50
1088.519,1144.00
1089.457,1082.50
1090.392,1097.00
1091.330,1114.00
1092.266,1122.00
1093.203,1138.50
1094.138,1089.00
1095.073,1117.50
1096.010,1142.00
1096.945,1155.50
1097.882,1112.50
1098.817,1112.00
1099.752,1155.50
1100.688,1093.50
1101.623,1138.00
1102.559,1103.50
1103.493,1112.50
1104.430,1085.50
1105.364,1110.50
1106.298,1072.00
1107.234,1121.50
1108.167,1125.00
1109.094,1117.50
1110.019,1064.00
1110.945,1096.50
1111.869,1063.50
1112.795,1079.50
1113.720,1059.50
1114.646,1078.50
1115.571,1043.50
1116.495,980.00
1117.420,1063.50
1118.345,1013.00
1119.270,1044.00
1120.195,1028.00
1121.118,990.50
1122.042,1016.00
1122.967,939.50
1123.891,917.00
1124.816,1048.00
1125.738,1012.00
1126.663,1005.50
1127.587,981.50
1128.511,950.50
1129.435,980.50
1130.357,986.00
1131.280,948.50
1132.204,982.00
1133.128,960.00
1134.051,909.00
1134.972,950.50
1135.896,904.50
1136.819,929.50
1137.742,946.00
1138.665,924.00
1139.586,934.50
1140.509,933.50
1141.431,905.00
1142.354,894.50
1143.276,905.50
1144.197,857.50
1145.119,896.50
1146.041,868.00
1146.964,852.50
1147.885,900.50
1148.806,832.00
1149.727,849.00
1150.649,900.00
1151.571,832.50
1152.492,885.50
1153.412,816.00
1154.333,837.00
1155.254,850.50
1156.175,882.00
1157.095,864.00
1158.016,841.00
1158.936,788.50
1159.857,801.50
1160.778,821.00
1161.697,861.50
1162.617,840.00
1163.537,873.50
1164.458,798.50
1165.376,819.50
1166.296,845.00
1167.216,839.00
1168.136,856.00
1169.056,839.00
1169.974,839.50
1170.893,795.50
1171.813,773.00
1172.732,786.50
1173.650,816.50
1174.569,770.50
1175.488,800.00
1176.407,821.50
1177.326,806.50
1178.243,827.50
1179.161,811.50
1180.080,776.50
1180.999,751.50
1181.915,783.00
1182.834,812.00
1183.752,801.50
1184.670,736.50
1185.586,776.00
1186.504,781.00
1187.422,796.00
1188.340,801.50
1189.258,768.00
1190.173,775.00
1191.091,792.50
1192.008,731.00
1192.926,780.50
1193.841,732.00
1194.758,794.00
1195.675,752.00
1196.592,743.50
1197.507,778.50
1198.424,758.00
1199.340,752.00
1200.257,793.00
1201.172,750.50
1202.088,761.50
1203.004,734.50
1203.920,733.00
1204.835,794.50
1205.750,725.50
1206.666,788.50
1207.582,777.00
1208.496,723.50
1209.412,742.50
1210.327,785.00
1211.243,761.00
1212.156,724.50
1213.071,740.00
1213.986,720.50
1214.901,752.50
1215.814,731.50
1216.729,755.50
1217.644,752.50
1218.559,767.50
1219.471,721.00
1220.386,750.00
1221.300,730.50
1222.213,757.00
1223.127,759.00
1224.041,764.00
1224.955,717.50
1225.867,736.50
1226.781,747.00
1227.694,748.00
1228.608,749.00
1229.520,739.50
1230.433,693.00
1231.346,714.50
1232.260,718.00
1233.171,698.00
1234.084,702.50
1234.997,729.50
1235.908,698.00
1236.821,756.00
1237.733,705.00
1238.646,735.50
1239.556,765.50
1240.469,753.50
1241.381,766.00
1242.293,715.50
1243.203,739.50
1244.115,704.50
1245.027,779.50
1245.937,797.50
1246.849,758.50
1247.761,770.00
1248.672,725.00
1249.582,767.50
1250.493,728.00
1251.404,772.00
1252.313,797.00
1253.225,799.00
1254.135,676.50
1255.046,733.00
1255.955,751.00
1256.866,769.00
1257.777,774.50
1258.685,759.00
1259.596,759.00
1260.506,735.50
1261.416,808.50
1262.324,777.50
1263.234,748.00
1264.144,732.50
1265.052,772.00
1265.962,737.50
1266.872,779.00
1267.779,781.50
1268.689,719.00
1269.598,768.50
1270.507,743.50
1271.415,758.00
1272.324,734.00
1273.233,734.50
1274.140,772.00
1275.048,733.00
1275.957,762.50
1276.864,769.50
1277.772,800.00
1278.681,807.50
1279.587,767.50
1280.496,728.50
1281.404,742.50
1282.312,815.50
1283.218,815.00
1284.126,783.00
1285.033,794.00
1285.939,791.00
1286.847,808.50
1287.754,812.00
1288.660,756.50
1289.567,726.50
1290.474,789.50
1291.380,734.50
1292.286,776.00
1293.193,764.00
1294.098,797.50
1295.005,764.00
1295.912,776.50
1296.816,798.50
1297.723,777.00
1298.629,805.00
