*RAS_DATA_START
*RAS_HEADER_START
*DISP_FMT_X "%.2f"
*DISP_FMT_Y "%.0f"
*DISP_FULLSCALE "16470.0000000000"
*DISP_LINE_COLOR "255.0000000000"
*DISP_LINE_STYLE "0.0000000000"
*DISP_LINE_WIDTH "0.2500000000"
*DISP_NOTE "測定データ-5"
*DISP_OFFSET_Y "0.0000000000"
*DISP_PEAKSEARCH_UNIT_Y "cps"
*DISP_RANGE_BOTTOM "0.0000000000"
*DISP_RANGE_LEFT "20.0000000000"
*DISP_RANGE_LOGCUTOFF "0.0100000000"
*DISP_RANGE_RIGHT "70.0000000000"
*DISP_RANGE_TOP "16470.0000000000"
*DISP_SCALE_MODE_Y "0.0000000000"
*DISP_TAB_NAME "2θ/θ"
*DISP_TITLE_Y "強度"
*DISP_UNIT_Y "cps"
*DISP_WINDOW_NAME "MSG_MACROENGINE"
*FILE_COMMENT " "
*FILE_MD5 ""
*FILE_MEMO " "
*FILE_OPERATOR "Administrator"
*FILE_SAMPLE " "
*FILE_TYPE "RAS_RAW"
*FILE_USERGROUP "システムマネージャ"
*FILE_VERSION "1.0000000000"
*HW_ATTACHMENT_ID "ATT0025"
*HW_ATTACHMENT_NAME "標準|Standard"
*HW_COUNTER_ID-0 "CUT0025"
*HW_COUNTER_ID-1 "CUT0020"
*HW_COUNTER_ID-2 "CUT0020"
*HW_COUNTER_ID-3 "CSL0021"
*HW_COUNTER_ID-4 "CMC0021"
*HW_COUNTER_NAME-0 "D/teX Ultra|D/teX Ultra"
*HW_COUNTER_NAME-1 "None|None"
*HW_COUNTER_NAME-2 "None|None"
*HW_COUNTER_NAME-3 "BBM|BBM"
*HW_COUNTER_NAME-4 "検出器モノクロメータ|Detector monochromator"
*HW_COUNTER_SELECT_NAME "D/teX Ultra|D/teX Ultra"
*HW_GONIOMETER_ID "GON0023"
*HW_GONIOMETER_NAME "SmartLab|SmartLab"
*HW_GONIOMETER_RADIUS-0 "90.0"
*HW_GONIOMETER_RADIUS-1 "114.0"
*HW_GONIOMETER_RADIUS-2 "190.0"
*HW_GONIOMETER_RADIUS-3 "300.0"
*HW_GONIOMETER_RADIUS-4 "187.0"
*HW_GONIOMETER_RADIUS-5 "300.0"
*HW_GONIOMETER_RADIUS-6 "113.0"
*HW_GONIOMETER_RADIUS-7 "331.0"
*HW_I_OPT_ID-0 "CBO0021"
*HW_I_OPT_ID-1 "ICR0023"
*HW_I_OPT_ID-2 "ISL0021"
*HW_I_OPT_ID-3 "ISO0021"
*HW_I_OPT_ID-4 "IAD0021"
*HW_I_OPT_ID-5 "IPR0001"
*HW_I_OPT_NAME-0 "CBOユニット|CBO unit"
*HW_I_OPT_NAME-1 "標準入射光学ユニット|Standard incident optical unit"
*HW_I_OPT_NAME-2 "標準入射スリットボックス|Standard incident slit box"
*HW_I_OPT_NAME-3 "入射平行スリット|Incident parallel slit"
*HW_I_OPT_NAME-4 "長手制限スリット|Length limiting slit"
*HW_I_OPT_NAME-5 "None|None"
*HW_R_ATTENUATER_AUTOMODE "0"
*HW_R_OPT_ID-0 "RSS0021"
*HW_R_OPT_ID-1 "RCR0023"
*HW_R_OPT_ID-2 "RSO0021"
*HW_R_OPT_ID-3 "RRS0021"
*HW_R_OPT_ID-4 "ATN0021"
*HW_R_OPT_ID-5 "RFL0021"
*HW_R_OPT_ID-6 "RAD0021"
*HW_R_OPT_NAME-0 "標準受光スリットボックス1|Standard receiving slit box # 1"
*HW_R_OPT_NAME-1 "標準受光光学ユニット1|Standard receiving unit # 1"
*HW_R_OPT_NAME-2 "標準受光光学ユニット2|Standard receiving optical unit # 2"
*HW_R_OPT_NAME-3 "標準受光スリットボックス2|Standard receiving slit box # 2"
*HW_R_OPT_NAME-4 "標準アッテネータ|Standard Attenuator"
*HW_R_OPT_NAME-5 "Cu Kβ|Cu K-beta"
*HW_R_OPT_NAME-6 "調整用受光スリット|Alignment receiving slit"
*HW_SAMPLE_HOLDER_ID "SMP0023"
*HW_SAMPLE_HOLDER_NAME "標準Zステージ|Standard Z stage"
*HW_XG_CURRENT_MAX "50"
*HW_XG_CURRENT_MIN "2"
*HW_XG_CURRENT_RESOLUTION "1"
*HW_XG_CURRENT_UNIT "mA"
*HW_XG_FOCUS "1mm x 10mm"
*HW_XG_FOCUS_TYPE "Normal"
*HW_XG_ID ""
*HW_XG_NAME "3kW 封入管(ID:1200)|3kW Sealed tube(ID:1200)"
*HW_XG_TARGET_ATOMIC_NUMBER "29.0000000000"
*HW_XG_TARGET_NAME "Cu"
*HW_XG_TYPE "Hermetic"
*HW_XG_VOLTAGE_MAX "60"
*HW_XG_VOLTAGE_MIN "20"
*HW_XG_VOLTAGE_RESOLUTION "1"
*HW_XG_VOLTAGE_UNIT "kV"
*HW_XG_WATT_MAX "1.500"
*HW_XG_WATT_UNIT "kW"
*HW_XG_WAVE_LENGTH_ALPHA1 "1.540593"
*HW_XG_WAVE_LENGTH_ALPHA2 "1.544414"
*HW_XG_WAVE_LENGTH_BETA "1.392250"
*MEAS_COND_AXIS_NAME-0 "2θ/θ"
*MEAS_COND_AXIS_NAME-1 "2θ"
*MEAS_COND_AXIS_NAME-2 "ω"
*MEAS_COND_AXIS_NAME-3 "Z"
*MEAS_COND_AXIS_NAME-4 "2θ/ω"
*MEAS_COND_AXIS_NAME-5 "θs"
*MEAS_COND_AXIS_NAME-6 "θd"
*MEAS_COND_AXIS_NAME-7 "Ts"
*MEAS_COND_AXIS_NAME-8 "CBO選択スリット"
*MEAS_COND_AXIS_NAME-9 "M"
*MEAS_COND_AXIS_NAME-10 "入射平行スリット"
*MEAS_COND_AXIS_NAME-11 "入射スリット"
*MEAS_COND_AXIS_NAME-12 ""
*MEAS_COND_AXIS_NAME-13 "Zs"
*MEAS_COND_AXIS_NAME-14 "入射光学素子"
*MEAS_COND_AXIS_NAME-15 "長手制限スリット"
*MEAS_COND_AXIS_NAME-16 "センタースリット"
*MEAS_COND_AXIS_NAME-17 "フィルター"
*MEAS_COND_AXIS_NAME-18 "受光スリット1"
*MEAS_COND_AXIS_NAME-19 "受光スリット2"
*MEAS_COND_AXIS_NAME-20 "受光光学素子"
*MEAS_COND_AXIS_NAME-21 "受光平行スリット"
*MEAS_COND_AXIS_NAME-22 "調整用受光スリット"
*MEAS_COND_AXIS_NAME-23 ""
*MEAS_COND_AXIS_NAME-24 ""
*MEAS_COND_AXIS_NAME-25 "Zd"
*MEAS_COND_AXIS_NAME-26 "アッテネータ"
*MEAS_COND_AXIS_NAME-27 "検出器モノクロメータ"
*MEAS_COND_AXIS_NAME-28 "モノクロメータスリット"
*MEAS_COND_AXIS_NAME-29 "プライマリビーム"
*MEAS_COND_AXIS_NAME-30 "PHA"
*MEAS_COND_AXIS_NAME_INTERNAL-0 "TwoThetaTheta"
*MEAS_COND_AXIS_NAME_INTERNAL-1 "TwoTheta"
*MEAS_COND_AXIS_NAME_INTERNAL-2 "Omega"
*MEAS_COND_AXIS_NAME_INTERNAL-3 "Z"
*MEAS_COND_AXIS_NAME_INTERNAL-4 "TwoThetaOmega"
*MEAS_COND_AXIS_NAME_INTERNAL-5 "ThetaS"
*MEAS_COND_AXIS_NAME_INTERNAL-6 "ThetaD"
*MEAS_COND_AXIS_NAME_INTERNAL-7 "Ts"
*MEAS_COND_AXIS_NAME_INTERNAL-8 "CBO"
*MEAS_COND_AXIS_NAME_INTERNAL-9 "CBO-M"
*MEAS_COND_AXIS_NAME_INTERNAL-10 "IncidentSollerSlit"
*MEAS_COND_AXIS_NAME_INTERNAL-11 "IncidentSlitBox"
*MEAS_COND_AXIS_NAME_INTERNAL-12 "IncidentSlitBox-_Axis"
*MEAS_COND_AXIS_NAME_INTERNAL-13 "Zs"
*MEAS_COND_AXIS_NAME_INTERNAL-14 "IncidentMonochromator"
*MEAS_COND_AXIS_NAME_INTERNAL-15 "IncidentAxdSlit"
*MEAS_COND_AXIS_NAME_INTERNAL-16 "CenterSlit"
*MEAS_COND_AXIS_NAME_INTERNAL-17 "Filter"
*MEAS_COND_AXIS_NAME_INTERNAL-18 "ReceivingSlitBox1"
*MEAS_COND_AXIS_NAME_INTERNAL-19 "ReceivingSlitBox2"
*MEAS_COND_AXIS_NAME_INTERNAL-20 "ReceivingOptics"
*MEAS_COND_AXIS_NAME_INTERNAL-21 "ReceivingSollerSlit"
*MEAS_COND_AXIS_NAME_INTERNAL-22 "ReceivingAxdSlit"
*MEAS_COND_AXIS_NAME_INTERNAL-23 "ReceivingSlitBox1-_Axis"
*MEAS_COND_AXIS_NAME_INTERNAL-24 "ReceivingSlitBox2-_Axis"
*MEAS_COND_AXIS_NAME_INTERNAL-25 "ReceivingSlitBox2-Zd"
*MEAS_COND_AXIS_NAME_INTERNAL-26 "Attenuator"
*MEAS_COND_AXIS_NAME_INTERNAL-27 "CounterMonochromator"
*MEAS_COND_AXIS_NAME_INTERNAL-28 "CounterSlit"
*MEAS_COND_AXIS_NAME_INTERNAL-29 "IncidentPrimary"
*MEAS_COND_AXIS_NAME_INTERNAL-30 "PHA"
*MEAS_COND_AXIS_NAME_MAGICNO-0 "83951616.0000000000"
*MEAS_COND_AXIS_NAME_MAGICNO-1 "268632064.0000000000"
*MEAS_COND_AXIS_NAME_MAGICNO-2 "268500992.0000000000"
*MEAS_COND_AXIS_NAME_MAGICNO-3 "285278208.0000000000"
*MEAS_COND_AXIS_NAME_MAGICNO-4 "83951616.0000000000"
*MEAS_COND_AXIS_NAME_MAGICNO-5 "131072.0000000000"
*MEAS_COND_AXIS_NAME_MAGICNO-6 "131072.0000000000"
*MEAS_COND_AXIS_NAME_MAGICNO-7 "318898176.0000000000"
*MEAS_COND_AXIS_NAME_MAGICNO-8 "20971521.0000000000"
*MEAS_COND_AXIS_NAME_MAGICNO-9 "285343744.0000000000"
*MEAS_COND_AXIS_NAME_MAGICNO-10 "20971521.0000000000"
*MEAS_COND_AXIS_NAME_MAGICNO-11 "22020097.0000000000"
*MEAS_COND_AXIS_NAME_MAGICNO-12 "25165824.0000000000"
*MEAS_COND_AXIS_NAME_MAGICNO-13 "318898176.0000000000"
*MEAS_COND_AXIS_NAME_MAGICNO-14 "1.0000000000"
*MEAS_COND_AXIS_NAME_MAGICNO-15 "20971521.0000000000"
*MEAS_COND_AXIS_NAME_MAGICNO-16 "20971521.0000000000"
*MEAS_COND_AXIS_NAME_MAGICNO-17 "20971521.0000000000"
*MEAS_COND_AXIS_NAME_MAGICNO-18 "23068673.0000000000"
*MEAS_COND_AXIS_NAME_MAGICNO-19 "23068673.0000000000"
*MEAS_COND_AXIS_NAME_MAGICNO-20 "20971521.0000000000"
*MEAS_COND_AXIS_NAME_MAGICNO-21 "20971521.0000000000"
*MEAS_COND_AXIS_NAME_MAGICNO-22 "20971521.0000000000"
*MEAS_COND_AXIS_NAME_MAGICNO-23 "25165824.0000000000"
*MEAS_COND_AXIS_NAME_MAGICNO-24 "25165824.0000000000"
*MEAS_COND_AXIS_NAME_MAGICNO-25 "285343744.0000000000"
*MEAS_COND_AXIS_NAME_MAGICNO-26 "17301505.0000000000"
*MEAS_COND_AXIS_NAME_MAGICNO-27 "20971521.0000000000"
*MEAS_COND_AXIS_NAME_MAGICNO-28 "20971521.0000000000"
*MEAS_COND_AXIS_NAME_MAGICNO-29 "20971521.0000000000"
*MEAS_COND_AXIS_NAME_MAGICNO-30 "0.0000000000"
*MEAS_COND_AXIS_OFFSET-0 "-"
*MEAS_COND_AXIS_OFFSET-1 "-0.0801000000"
*MEAS_COND_AXIS_OFFSET-2 "0.2338000000"
*MEAS_COND_AXIS_OFFSET-3 "-"
*MEAS_COND_AXIS_OFFSET-4 "-"
*MEAS_COND_AXIS_OFFSET-5 "0.2338000000"
*MEAS_COND_AXIS_OFFSET-6 "-0.3139000000"
*MEAS_COND_AXIS_OFFSET-7 "-"
*MEAS_COND_AXIS_OFFSET-8 "-"
*MEAS_COND_AXIS_OFFSET-9 "-"
*MEAS_COND_AXIS_OFFSET-10 "-"
*MEAS_COND_AXIS_OFFSET-11 "-"
*MEAS_COND_AXIS_OFFSET-12 "-"
*MEAS_COND_AXIS_OFFSET-13 "-"
*MEAS_COND_AXIS_OFFSET-14 "-"
*MEAS_COND_AXIS_OFFSET-15 "-"
*MEAS_COND_AXIS_OFFSET-16 "-"
*MEAS_COND_AXIS_OFFSET-17 "-"
*MEAS_COND_AXIS_OFFSET-18 "-"
*MEAS_COND_AXIS_OFFSET-19 "-"
*MEAS_COND_AXIS_OFFSET-20 "-"
*MEAS_COND_AXIS_OFFSET-21 "-"
*MEAS_COND_AXIS_OFFSET-22 "-"
*MEAS_COND_AXIS_OFFSET-23 "-"
*MEAS_COND_AXIS_OFFSET-24 "-"
*MEAS_COND_AXIS_OFFSET-25 "-"
*MEAS_COND_AXIS_OFFSET-26 "-"
*MEAS_COND_AXIS_OFFSET-27 "-"
*MEAS_COND_AXIS_OFFSET-28 "-"
*MEAS_COND_AXIS_OFFSET-29 "-"
*MEAS_COND_AXIS_OFFSET-30 "-"
*MEAS_COND_AXIS_POSITION-0 "0.0000000000"
*MEAS_COND_AXIS_POSITION-1 "0.0000000000"
*MEAS_COND_AXIS_POSITION-2 "0.0000000000"
*MEAS_COND_AXIS_POSITION-3 "-2.9583600000"
*MEAS_COND_AXIS_POSITION-4 "0.0000000000"
*MEAS_COND_AXIS_POSITION-5 "0.0000000000"
*MEAS_COND_AXIS_POSITION-6 "0.0000000000"
*MEAS_COND_AXIS_POSITION-7 "-0.4278800000"
*MEAS_COND_AXIS_POSITION-8 "BB"
*MEAS_COND_AXIS_POSITION-9 "0.0000000000"
*MEAS_COND_AXIS_POSITION-10 "Soller_slit_5.0deg"
*MEAS_COND_AXIS_POSITION-11 "2/3deg"
*MEAS_COND_AXIS_POSITION-12 "2.2088000000"
*MEAS_COND_AXIS_POSITION-13 "-1.0609400000"
*MEAS_COND_AXIS_POSITION-14 "0.0000000000"
*MEAS_COND_AXIS_POSITION-15 "10.0mm"
*MEAS_COND_AXIS_POSITION-16 "None"
*MEAS_COND_AXIS_POSITION-17 "Cu_K-beta"
*MEAS_COND_AXIS_POSITION-18 "13.000mm"
*MEAS_COND_AXIS_POSITION-19 "13.000mm"
*MEAS_COND_AXIS_POSITION-20 "No_unit"
*MEAS_COND_AXIS_POSITION-21 "Soller_slit_5.0deg"
*MEAS_COND_AXIS_POSITION-22 "None"
*MEAS_COND_AXIS_POSITION-23 "13.0000000000"
*MEAS_COND_AXIS_POSITION-24 "13.0000000000"
*MEAS_COND_AXIS_POSITION-25 "0.0081300000"
*MEAS_COND_AXIS_POSITION-26 "Open"
*MEAS_COND_AXIS_POSITION-27 "None"
*MEAS_COND_AXIS_POSITION-28 "None"
*MEAS_COND_AXIS_POSITION-29 "None"
*MEAS_COND_AXIS_POSITION-30 "38.0000000000"
*MEAS_COND_AXIS_UNIT-0 "deg"
*MEAS_COND_AXIS_UNIT-1 "deg"
*MEAS_COND_AXIS_UNIT-2 "deg"
*MEAS_COND_AXIS_UNIT-3 "mm"
*MEAS_COND_AXIS_UNIT-4 "deg"
*MEAS_COND_AXIS_UNIT-5 "deg"
*MEAS_COND_AXIS_UNIT-6 "deg"
*MEAS_COND_AXIS_UNIT-7 "mm"
*MEAS_COND_AXIS_UNIT-8 ""
*MEAS_COND_AXIS_UNIT-9 "pulse"
*MEAS_COND_AXIS_UNIT-10 ""
*MEAS_COND_AXIS_UNIT-11 ""
*MEAS_COND_AXIS_UNIT-12 "mm"
*MEAS_COND_AXIS_UNIT-13 "mm"
*MEAS_COND_AXIS_UNIT-14 ""
*MEAS_COND_AXIS_UNIT-15 ""
*MEAS_COND_AXIS_UNIT-16 ""
*MEAS_COND_AXIS_UNIT-17 ""
*MEAS_COND_AXIS_UNIT-18 ""
*MEAS_COND_AXIS_UNIT-19 ""
*MEAS_COND_AXIS_UNIT-20 ""
*MEAS_COND_AXIS_UNIT-21 ""
*MEAS_COND_AXIS_UNIT-22 ""
*MEAS_COND_AXIS_UNIT-23 "mm"
*MEAS_COND_AXIS_UNIT-24 "mm"
*MEAS_COND_AXIS_UNIT-25 "mm"
*MEAS_COND_AXIS_UNIT-26 ""
*MEAS_COND_AXIS_UNIT-27 ""
*MEAS_COND_AXIS_UNIT-28 ""
*MEAS_COND_AXIS_UNIT-29 ""
*MEAS_COND_AXIS_UNIT-30 "div"
*MEAS_COND_COUNTER_CNTLOSS_CORR "0.0000000000"
*MEAS_COND_COUNTER_PHABASE "38.0000000000"
*MEAS_COND_COUNTER_PHAWINDOW "16.0000000000"
*MEAS_COND_COUNTER_PHA_UNIT "div"
*MEAS_COND_COUNTER_TAUDIFF "30.0000000000"
*MEAS_COND_COUNTER_TAUINT "0.0000000000"
*MEAS_COND_IRRADIATION_MODE "OFF"
*MEAS_COND_IRRADIATION_WIDTH ""
*MEAS_COND_OPT_ATTR "集中法"
*MEAS_COND_OPT_NAME "@集中法"
*MEAS_COND_UNSYMMETRIC_MODE "OFF"
*MEAS_COND_XG_CURRENT "30.0000000000"
*MEAS_COND_XG_VOLTAGE "40.0000000000"
*MEAS_COND_XG_WAVE_TYPE "Ka"
*MEAS_DATA_COUNT "5001.0000000000"
*MEAS_SCAN_AXIS_X "2θ/θ"
*MEAS_SCAN_AXIS_X_INTERNAL "TwoThetaTheta"
*MEAS_SCAN_END_TIME "08/06/22 14:57:20"
*MEAS_SCAN_MODE "CONTINUOUS"
*MEAS_SCAN_MONITOR "0"
*MEAS_SCAN_RESOLUTION_X "0.0002"
*MEAS_SCAN_SPEED "2.5"
*MEAS_SCAN_SPEED_UNIT "deg/min"
*MEAS_SCAN_START "20.0000000000"
*MEAS_SCAN_START_TIME "08/06/22 14:35:56"
*MEAS_SCAN_STEP "0.0100000000"
*MEAS_SCAN_STOP "70.0000000000"
*MEAS_SCAN_UNIT_X "deg"
*MEAS_SCAN_UNIT_Y "counts"
*RAS_HEADER_END
*RAS_INT_START
20.0000 942.0000 1.0000
20.0100 894.0000 1.0000
20.0200 882.0000 1.0000
20.0300 961.0000 1.0000
20.0400 959.0000 1.0000
20.0500 939.0000 1.0000
20.0600 909.0000 1.0000
20.0700 942.0000 1.0000
20.0800 899.0000 1.0000
20.0900 948.0000 1.0000
20.1000 903.0000 1.0000
20.1100 948.0000 1.0000
20.1200 900.0000 1.0000
20.1300 905.0000 1.0000
20.1400 894.0000 1.0000
20.1500 924.0000 1.0000
20.1600 961.0000 1.0000
20.1700 907.0000 1.0000
20.1800 909.0000 1.0000
20.1900 934.0000 1.0000
20.2000 925.0000 1.0000
20.2100 899.0000 1.0000
20.2200 909.0000 1.0000
20.2300 919.0000 1.0000
20.2400 976.0000 1.0000
20.2500 933.0000 1.0000
20.2600 985.0000 1.0000
20.2700 873.0000 1.0000
20.2800 931.0000 1.0000
20.2900 896.0000 1.0000
20.3000 929.0000 1.0000
20.3100 948.0000 1.0000
20.3200 893.0000 1.0000
20.3300 923.0000 1.0000
20.3400 929.0000 1.0000
20.3500 987.0000 1.0000
20.3600 953.0000 1.0000
20.3700 946.0000 1.0000
20.3800 924.0000 1.0000
20.3900 912.0000 1.0000
20.4000 931.0000 1.0000
20.4100 948.0000 1.0000
20.4200 950.0000 1.0000
20.4300 860.0000 1.0000
20.4400 917.0000 1.0000
20.4500 946.0000 1.0000
20.4600 882.0000 1.0000
20.4700 888.0000 1.0000
20.4800 909.0000 1.0000
20.4900 932.0000 1.0000
20.5000 916.0000 1.0000
20.5100 926.0000 1.0000
20.5200 928.0000 1.0000
20.5300 921.0000 1.0000
20.5400 909.0000 1.0000
20.5500 919.0000 1.0000
20.5600 885.0000 1.0000
20.5700 900.0000 1.0000
20.5800 938.0000 1.0000
20.5900 903.0000 1.0000
20.6000 864.0000 1.0000
20.6100 880.0000 1.0000
20.6200 930.0000 1.0000
20.6300 904.0000 1.0000
20.6400 952.0000 1.0000
20.6500 954.0000 1.0000
20.6600 897.0000 1.0000
20.6700 942.0000 1.0000
20.6800 929.0000 1.0000
20.6900 898.0000 1.0000
20.7000 891.0000 1.0000
20.7100 869.0000 1.0000
20.7200 898.0000 1.0000
20.7300 904.0000 1.0000
20.7400 878.0000 1.0000
20.7500 878.0000 1.0000
20.7600 929.0000 1.0000
20.7700 910.0000 1.0000
20.7800 940.0000 1.0000
20.7900 921.0000 1.0000
20.8000 897.0000 1.0000
20.8100 923.0000 1.0000
20.8200 928.0000 1.0000
20.8300 940.0000 1.0000
20.8400 945.0000 1.0000
20.8500 899.0000 1.0000
20.8600 886.0000 1.0000
20.8700 875.0000 1.0000
20.8800 895.0000 1.0000
20.8900 921.0000 1.0000
20.9000 935.0000 1.0000
20.9100 946.0000 1.0000
20.9200 955.0000 1.0000
20.9300 933.0000 1.0000
20.9400 889.0000 1.0000
20.9500 881.0000 1.0000
20.9600 973.0000 1.0000
20.9700 933.0000 1.0000
20.9800 922.0000 1.0000
20.9900 925.0000 1.0000
21.0000 920.0000 1.0000
21.0100 909.0000 1.0000
21.0200 902.0000 1.0000
21.0300 990.0000 1.0000
21.0400 946.0000 1.0000
21.0500 937.0000 1.0000
21.0600 919.0000 1.0000
21.0700 905.0000 1.0000
21.0800 928.0000 1.0000
21.0900 937.0000 1.0000
21.1000 900.0000 1.0000
21.1100 915.0000 1.0000
21.1200 916.0000 1.0000
21.1300 902.0000 1.0000
21.1400 884.0000 1.0000
21.1500 917.0000 1.0000
21.1600 908.0000 1.0000
21.1700 879.0000 1.0000
21.1800 875.0000 1.0000
21.1900 897.0000 1.0000
21.2000 968.0000 1.0000
21.2100 959.0000 1.0000
21.2200 926.0000 1.0000
21.2300 909.0000 1.0000
21.2400 927.0000 1.0000
21.2500 948.0000 1.0000
21.2600 900.0000 1.0000
21.2700 888.0000 1.0000
21.2800 952.0000 1.0000
21.2900 967.0000 1.0000
21.3000 940.0000 1.0000
21.3100 920.0000 1.0000
21.3200 872.0000 1.0000
21.3300 920.0000 1.0000
21.3400 911.0000 1.0000
21.3500 902.0000 1.0000
21.3600 911.0000 1.0000
21.3700 885.0000 1.0000
21.3800 899.0000 1.0000
21.3900 871.0000 1.0000
21.4000 940.0000 1.0000
21.4100 914.0000 1.0000
21.4200 948.0000 1.0000
21.4300 950.0000 1.0000
21.4400 924.0000 1.0000
21.4500 917.0000 1.0000
21.4600 897.0000 1.0000
21.4700 868.0000 1.0000
21.4800 867.0000 1.0000
21.4900 885.0000 1.0000
21.5000 895.0000 1.0000
21.5100 967.0000 1.0000
21.5200 985.0000 1.0000
21.5300 913.0000 1.0000
21.5400 914.0000 1.0000
21.5500 912.0000 1.0000
21.5600 908.0000 1.0000
21.5700 891.0000 1.0000
21.5800 873.0000 1.0000
21.5900 910.0000 1.0000
21.6000 946.0000 1.0000
21.6100 981.0000 1.0000
21.6200 874.0000 1.0000
21.6300 947.0000 1.0000
21.6400 879.0000 1.0000
21.6500 886.0000 1.0000
21.6600 883.0000 1.0000
21.6700 909.0000 1.0000
21.6800 876.0000 1.0000
21.6900 927.0000 1.0000
21.7000 861.0000 1.0000
21.7100 916.0000 1.0000
21.7200 904.0000 1.0000
21.7300 933.0000 1.0000
21.7400 944.0000 1.0000
21.7500 892.0000 1.0000
21.7600 910.0000 1.0000
21.7700 922.0000 1.0000
21.7800 904.0000 1.0000
21.7900 918.0000 1.0000
21.8000 896.0000 1.0000
21.8100 958.0000 1.0000
21.8200 953.0000 1.0000
21.8300 953.0000 1.0000
21.8400 908.0000 1.0000
21.8500 898.0000 1.0000
21.8600 888.0000 1.0000
21.8700 931.0000 1.0000
21.8800 925.0000 1.0000
21.8900 907.0000 1.0000
21.9000 856.0000 1.0000
21.9100 844.0000 1.0000
21.9200 888.0000 1.0000
21.9300 949.0000 1.0000
21.9400 886.0000 1.0000
21.9500 915.0000 1.0000
21.9600 890.0000 1.0000
21.9700 909.0000 1.0000
21.9800 950.0000 1.0000
21.9900 915.0000 1.0000
22.0000 946.0000 1.0000
22.0100 920.0000 1.0000
22.0200 931.0000 1.0000
22.0300 922.0000 1.0000
22.0400 853.0000 1.0000
22.0500 916.0000 1.0000
22.0600 942.0000 1.0000
22.0700 902.0000 1.0000
22.0800 923.0000 1.0000
22.0900 928.0000 1.0000
22.1000 901.0000 1.0000
22.1100 959.0000 1.0000
22.1200 946.0000 1.0000
22.1300 943.0000 1.0000
22.1400 927.0000 1.0000
22.1500 944.0000 1.0000
22.1600 892.0000 1.0000
22.1700 887.0000 1.0000
22.1800 904.0000 1.0000
22.1900 895.0000 1.0000
22.2000 854.0000 1.0000
22.2100 899.0000 1.0000
22.2200 871.0000 1.0000
22.2300 857.0000 1.0000
22.2400 943.0000 1.0000
22.2500 914.0000 1.0000
22.2600 905.0000 1.0000
22.2700 872.0000 1.0000
22.2800 889.0000 1.0000
22.2900 876.0000 1.0000
22.3000 911.0000 1.0000
22.3100 945.0000 1.0000
22.3200 885.0000 1.0000
22.3300 885.0000 1.0000
22.3400 848.0000 1.0000
22.3500 869.0000 1.0000
22.3600 876.0000 1.0000
22.3700 902.0000 1.0000
22.3800 910.0000 1.0000
22.3900 885.0000 1.0000
22.4000 905.0000 1.0000
22.4100 907.0000 1.0000
22.4200 888.0000 1.0000
22.4300 925.0000 1.0000
22.4400 895.0000 1.0000
22.4500 918.0000 1.0000
22.4600 884.0000 1.0000
22.4700 889.0000 1.0000
22.4800 863.0000 1.0000
22.4900 918.0000 1.0000
22.5000 875.0000 1.0000
22.5100 884.0000 1.0000
22.5200 906.0000 1.0000
22.5300 941.0000 1.0000
22.5400 922.0000 1.0000
22.5500 898.0000 1.0000
22.5600 874.0000 1.0000
22.5700 930.0000 1.0000
22.5800 892.0000 1.0000
22.5900 897.0000 1.0000
22.6000 927.0000 1.0000
22.6100 927.0000 1.0000
22.6200 930.0000 1.0000
22.6300 933.0000 1.0000
22.6400 895.0000 1.0000
22.6500 849.0000 1.0000
22.6600 897.0000 1.0000
22.6700 944.0000 1.0000
22.6800 873.0000 1.0000
22.6900 887.0000 1.0000
22.7000 889.0000 1.0000
22.7100 939.0000 1.0000
22.7200 877.0000 1.0000
22.7300 894.0000 1.0000
22.7400 883.0000 1.0000
22.7500 894.0000 1.0000
22.7600 907.0000 1.0000
22.7700 899.0000 1.0000
22.7800 900.0000 1.0000
22.7900 860.0000 1.0000
22.8000 861.0000 1.0000
22.8100 885.0000 1.0000
22.8200 885.0000 1.0000
22.8300 879.0000 1.0000
22.8400 872.0000 1.0000
22.8500 880.0000 1.0000
22.8600 879.0000 1.0000
22.8700 919.0000 1.0000
22.8800 889.0000 1.0000
22.8900 856.0000 1.0000
22.9000 893.0000 1.0000
22.9100 867.0000 1.0000
22.9200 872.0000 1.0000
22.9300 912.0000 1.0000
22.9400 917.0000 1.0000
22.9500 876.0000 1.0000
22.9600 935.0000 1.0000
22.9700 911.0000 1.0000
22.9800 930.0000 1.0000
22.9900 901.0000 1.0000
23.0000 890.0000 1.0000
23.0100 858.0000 1.0000
23.0200 823.0000 1.0000
23.0300 881.0000 1.0000
23.0400 902.0000 1.0000
23.0500 898.0000 1.0000
23.0600 925.0000 1.0000
23.0700 873.0000 1.0000
23.0800 883.0000 1.0000
23.0900 892.0000 1.0000
23.1000 934.0000 1.0000
23.1100 913.0000 1.0000
23.1200 881.0000 1.0000
23.1300 884.0000 1.0000
23.1400 849.0000 1.0000
23.1500 865.0000 1.0000
23.1600 909.0000 1.0000
23.1700 886.0000 1.0000
23.1800 892.0000 1.0000
23.1900 914.0000 1.0000
23.2000 919.0000 1.0000
23.2100 874.0000 1.0000
23.2200 915.0000 1.0000
23.2300 884.0000 1.0000
23.2400 899.0000 1.0000
23.2500 877.0000 1.0000
23.2600 917.0000 1.0000
23.2700 893.0000 1.0000
23.2800 880.0000 1.0000
23.2900 870.0000 1.0000
23.3000 868.0000 1.0000
23.3100 868.0000 1.0000
23.3200 893.0000 1.0000
23.3300 880.0000 1.0000
23.3400 867.0000 1.0000
23.3500 860.0000 1.0000
23.3600 903.0000 1.0000
23.3700 886.0000 1.0000
23.3800 862.0000 1.0000
23.3900 866.0000 1.0000
23.4000 891.0000 1.0000
23.4100 920.0000 1.0000
23.4200 940.0000 1.0000
23.4300 917.0000 1.0000
23.4400 899.0000 1.0000
23.4500 874.0000 1.0000
23.4600 886.0000 1.0000
23.4700 904.0000 1.0000
23.4800 884.0000 1.0000
23.4900 887.0000 1.0000
23.5000 876.0000 1.0000
23.5100 892.0000 1.0000
23.5200 835.0000 1.0000
23.5300 900.0000 1.0000
23.5400 945.0000 1.0000
23.5500 888.0000 1.0000
23.5600 869.0000 1.0000
