RamanScope Measure Spectrum Data V3.72

<< MEASURE CONDITION >>
Exposure Type,Aver
Exposure Time [sec],15
Exposure Count,30
Measure Time,2023/07/04 14:35:35
Data Name,""
Data Comment,""
Rayleigh Wave[nm],532.0

<< SAMPLE SPECTRUM >>
Wave[dcm-1],No250
146.591,686.17
147.626,807.83
148.664,976.37
149.699,1142.13
150.737,1329.97
151.772,1506.90
152.809,1702.13
153.846,1882.13
154.881,2061.40
155.918,2193.87
156.953,2380.00
157.989,2503.40
159.026,2598.27
160.060,2700.83
161.096,2761.63
162.130,2835.10
163.167,2877.40
164.200,2947.67
165.236,2981.93
166.272,3063.50
167.305,3083.53
168.341,3138.70
169.374,3162.90
170.409,3268.93
171.445,3315.87
172.477,3384.33
173.512,3418.10
174.545,3465.90
175.580,3527.40
176.614,3544.47
177.647,3596.53
178.681,3597.47
179.713,3656.73
180.747,3605.80
181.781,3554.07
182.813,3565.60
183.847,3542.20
184.878,3566.33
185.912,3555.83
186.945,3635.57
187.976,3593.90
189.010,3588.17
190.043,3647.23
191.073,3665.43
192.106,3731.47
193.137,3708.17
194.170,3831.20
195.202,3808.10
196.232,3922.70
197.265,3928.27
198.297,3998.63
199.327,4096.53
200.359,4169.57
201.388,4218.17
202.420,4328.87
203.452,4423.83
204.481,4513.37
205.512,4696.07
206.544,4803.90
207.573,4934.03
208.604,5035.27
209.635,5269.23
210.663,5483.57
211.694,5666.83
212.725,5929.93
213.753,6142.13
214.783,6316.00
215.813,6491.03
216.841,6687.10
217.871,6754.07
218.899,6798.33
219.929,6857.30
220.959,6856.50
221.986,6738.50
223.016,6593.63
224.045,6437.00
225.072,6302.30
226.101,6098.53
227.130,5918.90
228.157,5712.63
229.185,5579.17
230.214,5406.33
231.241,5327.70
232.269,5187.60
233.297,5109.10
234.323,4996.50
235.351,4965.23
236.379,4869.20
237.407,4830.93
238.433,4841.30
239.460,4829.87
240.488,4804.93
241.513,4798.47
242.540,4838.63
243.568,4813.00
244.592,4879.40
245.619,4910.53
246.646,4941.90
247.671,4945.37
248.697,4910.57
249.724,4937.90
250.748,4862.80
251.774,4874.70
252.801,4923.27
253.827,4843.10
254.850,4854.27
255.876,4930.00
256.902,4941.07
257.925,4955.07
258.951,4966.17
259.976,5023.70
260.999,5064.70
262.024,5128.10
263.049,5160.57
264.074,5245.00
265.097,5260.63
266.122,5318.37
267.146,5412.07
268.168,5478.60
269.193,5531.17
270.217,5597.13
271.241,5645.73
272.263,5752.87
273.287,5783.63
274.311,5811.83
275.332,5882.17
276.356,5858.77
277.379,5883.20
278.402,5857.10
279.424,5814.93
280.447,5777.53
281.470,5752.90
282.492,5707.20
283.513,5623.40
284.536,5534.53
285.558,5517.50
286.581,5377.50
287.601,5336.03
288.623,5271.73
289.645,5165.77
290.665,5062.47
291.687,5013.10
292.709,4952.50
293.730,4832.73
294.750,4723.07
295.771,4654.23
296.792,4605.07
297.813,4583.07
298.832,4457.87
299.853,4398.10
300.874,4359.50
301.895,4246.30
302.913,4203.57
303.934,4172.73
304.954,4105.77
305.975,4060.50
306.993,4017.77
308.013,3975.70
309.033,3896.23
310.052,3860.83
311.072,3812.00
312.090,3799.53
313.109,3781.20
314.129,3757.87
315.148,3743.57
316.165,3740.80
317.184,3667.43
318.203,3645.73
319.222,3654.80
320.238,3595.63
321.257,3589.03
322.275,3563.73
323.294,3605.57
324.312,3563.90
325.328,3510.10
326.346,3541.93
327.364,3504.20
328.382,3522.60
329.397,3507.33
330.415,3446.83
331.432,3462.83
332.450,3391.23
333.467,3404.80
334.482,3439.33
335.499,3463.93
336.516,3432.20
337.533,3418.27
338.547,3375.60
339.564,3419.20
340.580,3415.50
341.597,3384.33
342.613,3406.03
343.627,3363.03
344.643,3399.53
345.659,3424.07
346.675,3349.47
347.690,3341.53
348.704,3338.10
349.719,3377.70
350.735,3390.23
351.750,3323.03
352.765,3359.03
353.778,3362.30
354.793,3356.70
355.808,3328.40
356.822,3318.20
357.837,3357.60
358.851,3339.00
359.864,3359.53
360.878,3413.40
361.892,3388.20
362.906,3353.87
363.920,3368.20
364.932,3412.67
365.945,3387.77
366.959,3400.40
367.972,3388.50
368.986,3391.60
369.999,3427.07
371.010,3443.10
372.023,3436.00
373.036,3431.13
374.049,3431.27
375.061,3483.70
376.072,3510.03
377.084,3454.57
378.097,3484.07
379.109,3478.20
380.121,3510.40
381.133,3533.53
382.143,3512.07
383.155,3456.93
384.166,3492.00
385.178,3522.73
386.189,3517.00
387.201,3519.60
388.212,3520.60
389.221,3485.73
390.232,3490.73
391.243,3511.83
392.254,3503.27
393.264,3476.10
394.275,3450.50
395.283,3468.80
396.294,3443.00
397.304,3400.37
398.314,3376.87
399.324,3379.20
400.334,3369.13
401.344,3368.57
402.351,3311.17
403.361,3303.40
404.370,3288.70
405.380,3280.43
406.389,3262.20
407.398,3262.37
408.407,3210.50
409.414,2782.27
410.423,3202.23
411.431,3221.97
412.440,3177.93
413.448,3145.83
414.457,3131.63
415.465,3138.33
416.471,3111.87
417.479,3139.90
418.487,3079.10
419.495,3105.10
420.503,3087.90
421.510,3103.17
422.518,3045.40
423.525,3014.83
424.530,3034.70
425.537,3028.20
426.544,3025.27
427.551,3066.40
428.558,3052.07
429.565,2973.63
430.571,2990.30
431.578,2989.07
432.582,2995.67
433.588,2983.93
434.595,3030.80
435.601,2987.03
436.607,2994.03
437.612,3019.47
438.618,3016.20
439.624,2962.00
440.627,2948.27
441.633,2966.47
442.638,2961.77
443.643,2973.83
444.648,2964.83
445.653,2959.07
446.658,2994.27
447.663,3004.50
448.667,2996.63
449.672,2964.77
450.674,2954.43
451.678,2939.83
452.682,3028.17
453.687,3014.30
454.690,2986.13
455.694,3008.00
456.698,3012.83
457.702,3025.73
458.705,3022.00
459.709,3002.23
460.710,2996.23
461.713,3011.63
462.716,3030.03
463.719,3010.23
464.722,2974.77
465.725,2999.50
466.727,3030.17
467.730,3053.27
468.732,3035.47
469.735,3015.20
470.737,3051.27
471.737,3054.47
472.739,3064.83
473.741,3077.77
474.742,3084.50
475.744,3039.80
476.746,3063.20
477.747,3019.93
478.748,3068.37
479.750,3079.93
480.751,3058.80
481.752,3039.87
482.753,3069.33
483.751,3130.40
484.752,3075.37
485.753,3125.50
486.753,3095.90
487.753,3080.47
488.754,3075.80
489.754,3088.60
490.754,3037.57
491.754,3096.97
492.754,3042.27
493.753,3041.50
494.753,3078.77
495.752,3044.13
496.752,3065.37
497.749,3078.07
498.748,3096.17
499.747,3072.67
500.746,3057.80
501.745,3044.77
502.744,3021.00
503.742,3043.97
504.741,3011.90
505.739,2986.53
506.737,3001.37
507.735,2976.37
508.734,2984.07
509.732,2984.40
510.729,2971.33
511.727,2972.50
512.725,2945.87
513.720,2954.73
514.718,2933.77
515.715,2928.23
516.712,2913.37
517.709,2922.10
518.706,2918.47
519.703,2896.13
520.700,2953.77
521.696,2953.83
522.693,2906.07
523.689,2905.60
524.686,2891.03
525.682,2908.80
526.678,2909.57
527.674,2933.37
528.670,2921.63
529.666,2931.20
530.661,2925.03
531.657,2939.60
532.652,2950.10
533.648,2885.57
534.641,2928.27
535.636,2926.37
536.631,2951.20
537.626,2959.00
538.621,2974.37
539.616,2937.37
540.610,2969.03
541.605,2969.93
542.599,2947.33
543.593,2949.30
544.587,2955.13
545.581,3016.10
546.575,2958.47
547.569,2958.67
548.563,2939.03
549.557,2995.30
550.550,2982.27
551.543,3001.53
552.537,3026.27
553.530,2974.43
554.523,3006.80
555.516,3019.23
556.509,3003.97
557.502,2994.37
558.494,3018.27
559.487,2985.03
560.479,2962.33
561.472,3012.20
562.464,3006.70
563.456,2960.97
564.448,3008.23
565.440,3026.67
566.432,3053.30
567.423,3055.23
568.415,3029.23
569.404,3035.10
570.396,3064.53
571.387,3080.37
572.378,3082.83
573.369,3100.17
574.360,3041.60
575.351,3082.83
576.341,3126.23
577.332,3136.87
578.323,3138.47
579.313,3166.23
580.303,3141.43
581.293,3163.63
582.283,3202.67
583.273,3208.43
584.263,3165.40
585.253,3128.27
586.243,3173.77
587.232,3174.70
588.222,3188.23
589.211,3184.87
590.200,3186.30
591.189,3171.80
592.178,3210.10
593.167,3252.33
594.156,3176.97
595.145,3162.50
596.133,3200.03
597.122,3201.47
598.110,3202.33
599.098,3157.77
600.086,3172.50
601.074,3150.43
602.062,3199.50
603.050,3199.70
604.038,3197.60
605.025,3175.93
606.013,3181.73
607.000,3175.93
607.987,3111.77
608.975,3159.87
609.962,3147.87
610.949,3106.47
611.936,3147.17
612.922,3107.77
613.909,3132.40
614.895,3080.73
615.882,2999.70
616.868,3058.90
617.854,3043.53
618.841,3017.40
619.826,3018.20
620.812,2948.43
621.798,2929.20
622.784,2956.40
623.769,2918.80
624.755,2935.23
625.740,2884.17
626.725,2862.63
627.711,2856.73
628.698,2880.43
629.683,2810.23
630.667,2797.07
631.652,2819.10
632.637,2833.87
633.621,2765.80
634.606,2784.23
635.590,2782.93
636.574,2711.63
637.558,2675.27
638.542,2731.33
639.526,2700.23
640.510,2657.83
641.493,2664.30
642.477,2640.63
643.460,2646.23
644.444,2656.17
645.427,2653.13
646.410,2626.70
647.393,2607.90
648.376,2622.27
649.359,2563.73
650.341,2546.60
651.324,2575.30
652.307,2531.60
653.289,2557.70
654.271,2533.73
655.253,2529.07
656.235,2506.67
657.217,2518.93
658.199,2467.53
659.181,2457.10
660.163,2507.80
661.144,2444.03
662.126,2491.03
663.107,2503.87
664.088,2491.27
665.069,2421.60
666.050,2440.30
667.033,2439.77
668.014,2404.70
668.995,2391.07
669.975,2422.77
670.956,2416.80
671.936,2395.83
672.916,2372.83
673.896,2396.47
674.876,2373.03
675.856,2346.53
676.836,2337.60
677.816,2313.20
678.795,2278.00
679.775,2301.53
680.754,2276.73
681.734,2241.13
682.713,2223.13
683.692,2206.83
684.671,2241.00
685.650,2191.30
686.629,2205.00
687.607,2209.33
688.586,2160.97
689.564,2162.33
690.543,2162.97
691.523,2156.00
692.501,2149.97
693.479,2167.30
694.457,2138.83
695.435,2121.43
696.413,2101.93
697.390,2078.40
698.368,2109.90
699.345,2086.57
700.322,2041.80
701.300,2033.90
702.277,2024.57
703.254,2081.07
704.231,2064.23
705.207,2028.10
706.184,2029.07
707.161,2023.37
708.137,2004.33
709.113,2002.27
710.090,1979.73
711.068,1982.53
712.044,1989.40
713.020,1992.77
713.996,1974.60
714.971,1945.50
715.947,1871.03
716.922,1971.70
717.898,1983.67
718.873,1988.80
719.848,1934.67
720.823,1945.73
721.798,1915.80
722.773,1933.43
723.748,1905.10
724.723,1933.40
725.697,1886.20
726.672,1908.60
727.646,1892.33
728.622,1904.70
729.596,1890.63
730.570,1911.40
731.544,1878.20
732.518,1882.03
733.492,1863.93
734.466,1893.33
735.439,1838.10
736.413,1878.20
737.386,1833.97
738.359,1864.70
739.332,1860.90
740.305,1840.53
741.278,1827.67
742.251,1859.03
743.224,1832.00
744.196,1831.13
745.171,1830.17
746.143,1802.67
747.115,1810.57
748.087,1836.20
749.059,1811.33
750.031,1814.77
751.003,1802.73
751.975,1809.67
752.947,1789.60
753.918,1805.37
754.890,1810.00
755.861,1788.67
756.832,1734.67
757.803,1795.87
758.774,1763.13
759.747,1756.97
760.718,1747.20
761.689,1727.97
762.659,1728.00
763.630,1745.63
764.600,1719.17
765.570,1769.20
766.540,1733.07
767.510,1653.97
768.480,1709.07
769.450,1742.37
770.420,1735.70
771.390,1708.77
772.359,1726.43
773.329,1668.43
774.300,1738.47
775.269,1729.97
776.238,1661.30
777.207,1656.67
778.176,1666.93
779.145,1684.23
780.114,1662.60
781.083,1670.93
782.051,1686.63
783.019,1655.27
783.988,1684.70
784.956,1665.77
785.924,1669.63
786.894,1677.63
787.862,1669.87
788.830,1615.53
789.797,1655.30
790.765,1633.80
791.732,1626.97
792.700,1645.70
793.667,1664.23
794.634,1626.80
795.601,1659.13
796.568,1615.53
797.535,1673.23
798.502,1596.53
799.468,1603.50
800.437,1600.93
801.403,1626.13
802.370,1608.17
803.336,1565.03
804.302,1579.60
805.268,1598.10
806.234,1634.13
807.200,1592.60
808.166,1595.67
809.131,1585.43
810.097,1566.63
811.062,1562.63
812.027,1545.43
812.994,1540.77
813.960,1585.07
814.925,1566.03
815.889,1573.47
816.854,1583.70
817.819,1539.87
818.783,1557.87
819.748,1529.43
820.712,1569.73
821.677,1563.10
822.641,1523.17
823.605,1544.63
824.571,1537.23
825.534,1532.17
826.498,1527.33
827.462,1520.07
828.425,1545.30
829.389,1519.50
830.352,1462.00
831.315,1558.77
832.279,1506.10
833.242,1517.50
834.204,1522.13
835.167,1523.87
836.132,1457.07
837.095,1526.03
838.057,1494.60
839.020,1516.43
839.982,1512.43
840.944,1471.90
841.906,1549.10
842.868,1535.97
843.830,1480.07
844.792,1490.77
845.753,1477.33
846.715,1448.30
847.679,1492.87
848.640,1497.43
849.601,1468.47
850.562,1476.27
851.523,1465.83
852.484,1463.90
853.445,1474.37
854.406,1452.63
855.367,1463.13
856.327,1481.13
857.288,1458.47
858.248,1481.07
859.210,1489.60
860.170,1454.33
861.130,1435.03
862.090,1503.80
863.050,1455.57
864.010,1464.20
864.969,1429.63
865.929,1415.47
866.888,1418.97
867.848,1419.90
868.807,1449.77
869.766,1432.90
870.727,1419.33
871.686,1397.83
872.645,1399.00
873.604,1406.40
874.562,1418.50
875.521,1408.30
876.479,1463.77
877.437,1406.67
878.396,1398.53
879.354,1411.43
880.312,1443.53
881.270,1307.73
882.229,1405.30
883.187,1430.67
884.145,1393.33
885.102,1410.00
886.059,1375.13
887.017,1381.90
887.974,1423.33
888.931,1410.50
889.888,1406.90
890.845,1402.83
891.802,1434.67
892.758,1385.07
893.717,1385.53
894.673,1381.67
895.630,1391.30
896.586,1412.80
897.542,1418.87
898.498,1418.20
899.454,1369.10
900.410,1406.23
901.366,1388.20
902.321,1410.30
903.277,1388.00
904.232,1388.00
905.189,1379.83
906.145,1426.23
907.100,1382.27
908.055,1420.37
909.010,1425.30
909.965,1417.53
910.919,1400.87
911.874,1373.43
912.828,1395.50
913.783,1385.43
914.737,1394.40
915.693,1444.70
916.648,1385.97
917.602,1424.93
918.555,1382.57
919.509,1380.93
920.463,1384.60
921.417,1427.17
922.370,1393.60
923.324,1433.77
924.277,1385.93
925.230,1387.93
926.183,1370.27
927.138,1404.53
928.091,1402.07
929.044,1381.23
929.996,1390.10
930.949,1413.40
931.902,1396.20
932.854,1412.67
933.806,1432.40
934.758,1435.07
935.711,1432.50
936.663,1470.70
937.614,1417.50
938.568,1431.77
939.520,1422.47
940.471,1435.07
941.423,1409.17
942.374,1408.90
943.326,1465.20
944.277,1419.63
945.228,1403.33
946.179,1426.67
947.130,1432.13
948.080,1419.73
949.031,1423.20
949.984,1427.27
950.934,1382.07
951.884,1417.80
952.835,1377.97
953.785,1405.43
954.735,1428.27
955.685,1403.63
956.635,1410.77
957.585,1453.47
958.534,1382.30
959.484,1446.33
960.433,1418.10
961.383,1406.40
962.334,1392.10
963.283,1400.50
964.232,1431.93
965.181,1409.87
966.130,1410.33
967.079,1395.07
968.027,1401.50
968.976,1393.67
969.924,1422.13
970.873,1415.77
971.821,1420.07
972.769,1424.27
973.719,1409.43
974.667,1398.80
975.615,1430.27
976.562,1392.47
977.510,1388.50
978.458,1423.87
979.405,1410.90
980.352,1428.13
981.300,1389.07
982.247,1419.33
983.194,1391.60
984.141,1433.43
985.088,1421.20
986.036,1390.50
986.983,1371.53
987.930,1403.93
988.876,1397.43
989.822,1409.60
990.769,1427.60
991.715,1427.13
992.661,1418.20
993.607,1390.20
994.553,1405.30
995.498,1426.33
996.444,1413.67
997.389,1383.67
998.337,1370.53
999.282,1411.87
1000.227,1425.20
1001.173,1385.17
1002.118,1383.47
1003.062,1405.97
1004.007,1408.63
1004.952,1390.07
1005.897,1386.70
1006.841,1437.10
1007.786,1395.70
1008.730,1377.50
1009.674,1404.87
1010.618,1406.83
1011.564,1407.70
1012.508,1403.57
1013.452,1392.57
1014.396,1416.97
1015.339,1415.50
1016.283,1399.97
1017.226,1420.30
1018.170,1431.67
1019.113,1389.83
1020.056,1415.63
1020.999,1433.60
1021.942,1420.83
1022.885,1440.30
1023.828,1431.60
1024.770,1443.33
1025.715,1440.17
1026.657,1441.57
1027.600,1439.23
1028.542,1415.77
1029.484,1480.07
1030.426,1431.60
1031.368,1430.93
1032.310,1411.77
1033.251,1405.13
1034.193,1452.17
1035.135,1446.80
1036.076,1442.50
1037.017,1460.47
1037.959,1417.83
1038.900,1464.40
1039.843,1440.77
1040.784,1459.13
1041.725,1397.00
1042.665,1433.00
1043.606,1456.90
1044.547,1461.07
1045.487,1424.90
1046.427,1462.67
1047.368,1428.87
1048.308,1476.63
1049.248,1443.90
1050.188,1461.83
1051.128,1441.87
1052.067,1470.80
1053.007,1476.63
1053.947,1504.80
1054.886,1464.20
1055.827,1460.33
1056.766,1489.87
1057.706,1499.90
1058.645,1503.33
1059.584,1472.03
1060.522,1501.50
1061.461,1519.30
1062.400,1497.23
1063.338,1462.47
1064.277,1521.57
1065.215,1473.50
1066.154,1496.93
1067.092,1514.67
1068.030,1529.70
1068.968,1548.03
1069.906,1486.27
1070.843,1516.43
1071.781,1500.33
1072.720,1536.10
1073.658,1517.60
1074.595,1551.33
1075.533,1556.23
1076.470,1559.90
1077.407,1536.00
1078.344,1553.97
1079.281,1571.10
1080.217,1543.20
1081.154,1530.00
1082.091,1577.03
1083.027,1571.37
1083.964,1565.63
1084.900,1522.60
1085.836,1531.80
1086.772,1553.37
1087.708,1598.23
1088.644,1521.10
1089.580,1577.50
1090.515,1563.37
1091.451,1527.47
1092.388,1515.13
1093.324,1580.90
1094.259,1568.30
1095.194,1537.67
1096.129,1576.60
1097.064,1566.90
1097.999,1615.87
1098.934,1563.57
1099.869,1596.47
1100.803,1568.53
1101.738,1546.67
1102.672,1556.43
1103.607,1541.60
1104.541,1507.13
1105.475,1528.47
1106.409,1579.03
1107.343,1545.90
1108.277,1504.53
1109.210,1474.83
1110.144,1536.87
1111.078,1494.57
1112.011,1508.47
1112.944,1495.77
1113.878,1512.93
1114.811,1492.67
1115.744,1501.83
1116.678,1540.57
1117.611,1504.77
1118.544,1510.50
1119.477,1448.17
1120.409,1468.13
1121.342,1473.97
1122.274,1458.27
1123.206,1500.73
1124.138,1425.57
1125.070,1438.60
1126.002,1449.97
1126.934,1462.50
1127.866,1434.13
1128.798,1435.23
1129.729,1408.73
1130.661,1401.03
1131.592,1417.97
1132.523,1427.50
1133.454,1367.77
1134.385,1402.87
1135.317,1412.23
1136.247,1397.07
1137.178,1357.93
1138.109,1431.77
1139.039,1368.30
1139.970,1416.70
1140.900,1384.80
1141.831,1404.20
1142.761,1370.07
1143.691,1403.60
1144.621,1348.90
1145.551,1381.40
1146.480,1368.73
1147.410,1413.67
1148.340,1366.80
1149.269,1325.77
1150.199,1375.43
1151.128,1357.60
1152.057,1362.67
1152.979,1338.97
1153.898,1358.57
1154.819,1341.57
1155.739,1329.73
1156.658,1339.73
1157.579,1350.77
1158.498,1342.30
1159.419,1368.80
1160.338,1314.43
1161.256,1359.87
1162.177,1326.03
1163.095,1356.20
1164.016,1333.27
1164.934,1296.37
1165.852,1341.20
1166.772,1324.47
1167.690,1292.87
1168.610,1308.33
1169.528,1305.67
1170.446,1334.53
1171.365,1339.73
1172.283,1290.70
1173.202,1318.57
1174.120,1332.93
1175.037,1295.30
1175.956,1319.53
1176.873,1318.17
1177.792,1315.40
1178.709,1293.60
1179.626,1286.83
1180.544,1345.57
1181.461,1317.17
1182.379,1327.70
1183.296,1317.13
1184.212,1283.63
1185.130,1333.80
1186.046,1295.67
1186.962,1320.90
1187.880,1277.77
1188.796,1299.20
1189.714,1302.63
1190.629,1298.37
1191.545,1290.27
1192.462,1336.43
1193.378,1327.23
1194.295,1299.07
1195.210,1338.73
1196.125,1316.60
1197.042,1279.47
1197.957,1328.70
1198.872,1326.93
1199.788,1305.10
1200.703,1326.10
1201.619,1307.33
1202.534,1322.67
1203.448,1305.47
1204.364,1288.10
1205.278,1294.50
1206.192,1306.67
1207.108,1303.47
1208.022,1295.50
1208.938,1319.00
1209.851,1328.50
1210.765,1331.87
1211.680,1327.53
1212.594,1338.40
1213.507,1323.43
1214.422,1294.07
1215.335,1289.83
1216.248,1340.33
1217.163,1320.60
1218.076,1344.77
1218.990,1337.20
1219.903,1337.67
1220.816,1293.33
1221.730,1331.93
1222.642,1320.10
1223.554,1297.37
1224.469,1351.13
1225.380,1331.83
1226.292,1338.97
1227.206,1367.30
1228.118,1310.93
1229.032,1346.77
1229.943,1337.17
1230.855,1295.83
1231.768,1339.43
1232.679,1305.00
1233.590,1369.10
1234.503,1339.97
1235.414,1352.47
1236.325,1358.93
1237.238,1353.30
1238.149,1344.57
1239.059,1360.53
1239.972,1365.50
1240.882,1363.67
1241.793,1347.13
1242.705,1304.97
1243.615,1391.60
1244.525,1342.33
1245.437,1367.87
1246.347,1335.23
1247.259,1401.27
1248.168,1356.30
1249.078,1341.13
1249.989,1347.23
1250.899,1366.97
1251.808,1357.90
1252.719,1363.00
1253.628,1351.47
1254.537,1358.60
1255.448,1378.93
1256.357,1335.50
1257.266,1354.17
1258.176,1362.93
1259.085,1368.03
1259.993,1361.60
1260.904,1389.17
1261.812,1365.97
1262.720,1349.10
1263.630,1356.37
1264.538,1363.77
1265.446,1378.53
1266.356,1355.30
1267.263,1383.03
1268.171,1368.93
1269.080,1378.13
1269.988,1393.30
1270.895,1392.97
1271.804,1313.27
1272.711,1325.13
1273.619,1363.00
1274.527,1312.83
1275.434,1371.80
1276.341,1355.40
1277.248,1383.23
1278.156,1320.80
1279.063,1343.57
1279.969,1344.00
1280.877,1352.60
1281.783,1329.87
1282.690,1365.33
1283.598,1386.03
1284.503,1381.30
1285.409,1327.43
1286.317,1325.07
1287.223,1363.33
1288.128,1334.30
1289.036,1338.23
1289.941,1324.50
1290.846,1368.63
1291.751,1337.90
1292.658,1322.07
1293.563,1351.80
1294.468,1323.57
1295.375,1317.27
1296.280,1317.87
1297.184,1327.00
1298.091,1329.07
1298.995,1318.20
1299.900,1285.83
1300.806,1311.13
1301.710,1325.30
1302.614,1272.30
1303.518,1270.40
1304.424,1296.17
1305.327,1273.90
1306.231,1274.57
1307.137,1263.07
1308.040,1298.20
1308.943,1274.90
1309.847,1254.93
1310.752,1270.57
1311.655,1298.07
1312.558,1273.83
1313.463,1255.67
1314.366,1249.57
1315.269,1231.83
1316.171,1231.53
1317.076,1255.13
1317.978,1212.03
1318.881,1231.73
1319.785,1208.60
1320.687,1202.37
1321.589,1222.33
1322.491,1231.03
