RamanScope Measure Spectrum Data V3.72

<< MEASURE CONDITION >>
Exposure Type,Aver
Exposure Time [sec],15
Exposure Count,30
Measure Time,2023/07/05 08:52:27
Data Name,""
Data Comment,""
Rayleigh Wave[nm],532.0

<< SAMPLE SPECTRUM >>
Wave[dcm-1],No308
146.591,758.90
147.626,888.30
148.664,1018.27
149.699,1127.27
150.737,1307.57
151.772,1495.53
152.809,1635.43
153.846,1798.20
154.881,1898.87
155.918,1991.63
156.953,2086.97
157.989,2196.93
159.026,2264.63
160.060,2306.23
161.096,2376.23
162.130,2434.63
163.167,2438.40
164.200,2518.87
165.236,2529.47
166.272,2578.63
167.305,2614.43
168.341,2664.13
169.374,2723.33
170.409,2777.13
171.445,2810.87
172.477,2876.43
173.512,2865.70
174.545,2955.07
175.580,2972.30
176.614,2974.27
177.647,2987.07
178.681,2994.40
179.713,2944.33
180.747,2973.87
181.781,2944.70
182.813,2979.90
183.847,2975.00
184.878,2930.80
185.912,2960.53
186.945,3012.90
187.976,3006.50
189.010,3025.00
190.043,3079.03
191.073,3097.77
192.106,3145.43
193.137,3187.27
194.170,3242.10
195.202,3263.90
196.232,3344.73
197.265,3393.37
198.297,3490.40
199.327,3555.77
200.359,3614.83
201.388,3657.97
202.420,3798.17
203.452,3912.30
204.481,4026.50
205.512,4157.30
206.544,4282.37
207.573,4464.60
208.604,4661.93
209.635,4864.37
210.663,5075.87
211.694,5276.67
212.725,5477.27
213.753,5726.03
214.783,5968.67
215.813,6149.63
216.841,6242.33
217.871,6315.03
218.899,6381.23
219.929,6362.90
220.959,6253.60
221.986,6078.57
223.016,5892.73
224.045,5707.20
225.072,5509.67
226.101,5296.97
227.130,5094.17
228.157,4873.37
229.185,4732.67
230.214,4567.67
231.241,4488.20
232.269,4340.37
233.297,4241.73
234.323,4148.60
235.351,4088.00
236.379,4041.00
237.407,4003.07
238.433,3930.33
239.460,3873.30
240.488,3945.60
241.513,3963.50
242.540,3910.83
243.568,3962.90
244.592,4035.47
245.619,4015.27
246.646,4013.77
247.671,3984.57
248.697,3968.13
249.724,4001.97
250.748,3968.83
251.774,3968.30
252.801,3913.20
253.827,3954.87
254.850,3917.17
255.876,3981.27
256.902,4006.93
257.925,3990.53
258.951,4020.27
259.976,4057.93
260.999,4093.53
262.024,4125.73
263.049,4178.80
264.074,4239.47
265.097,4296.10
266.122,4350.53
267.146,4388.43
268.168,4430.93
269.193,4459.57
270.217,4598.63
271.241,4649.07
272.263,4682.27
273.287,4717.13
274.311,4745.40
275.332,4779.83
276.356,4809.90
277.379,4789.30
278.402,4810.17
279.424,4770.17
280.447,4738.87
281.470,4689.97
282.492,4677.83
283.513,4569.67
284.536,4527.63
285.558,4467.37
286.581,4411.67
287.601,4336.17
288.623,4207.77
289.645,4132.53
290.665,4152.53
291.687,4055.90
292.709,3965.23
293.730,3923.93
294.750,3823.80
295.771,3788.87
296.792,3776.73
297.813,3636.20
298.832,3630.80
299.853,3524.80
300.874,3493.30
301.895,3440.37
302.913,3372.70
303.934,3356.67
304.954,3317.67
305.975,3230.63
306.993,3235.17
308.013,3174.17
309.033,3133.83
310.052,3107.67
311.072,3111.27
312.090,3072.70
313.109,3038.10
314.129,3011.10
315.148,2996.77
316.165,2975.83
317.184,2972.60
318.203,2892.13
319.222,2916.43
320.238,2852.87
321.257,2894.07
322.275,2857.03
323.294,2878.80
324.312,2810.67
325.328,2760.23
326.346,2758.57
327.364,2779.23
328.382,2784.40
329.397,2785.50
330.415,2759.23
331.432,2730.50
332.450,2749.80
333.467,2744.47
334.482,2730.47
335.499,2708.13
336.516,2682.20
337.533,2657.10
338.547,2672.50
339.564,2701.77
340.580,2654.27
341.597,2645.93
342.613,2716.83
343.627,2675.40
344.643,2652.17
345.659,2589.23
346.675,2660.53
347.690,2645.93
348.704,2598.57
349.719,2627.13
350.735,2594.97
351.750,2605.47
352.765,2638.10
353.778,2645.90
354.793,2580.77
355.808,2619.53
356.822,2571.07
357.837,2567.30
358.851,2623.93
359.864,2610.07
360.878,2624.97
361.892,2624.07
362.906,2605.30
363.920,2620.07
364.932,2601.90
365.945,2628.77
366.959,2616.87
367.972,2629.60
368.986,2654.17
369.999,2653.97
371.010,2659.43
372.023,2624.10
373.036,2641.03
374.049,2643.80
375.061,2728.17
376.072,2657.53
377.084,2723.93
378.097,2681.07
379.109,2738.70
380.121,2736.10
381.133,2741.67
382.143,2740.70
383.155,2717.60
384.166,2713.80
385.178,2701.37
386.189,2736.97
387.201,2745.60
388.212,2729.53
389.221,2725.63
390.232,2726.57
391.243,2727.10
392.254,2719.43
393.264,2715.17
394.275,2676.73
395.283,2751.33
396.294,2672.40
397.304,2690.50
398.314,2680.97
399.324,2713.93
400.334,2663.93
401.344,2683.03
402.351,2595.80
403.361,2587.33
404.370,2637.07
405.380,2611.90
406.389,2546.07
407.398,2542.17
408.407,2531.57
409.414,2581.47
410.423,2516.73
411.431,2474.60
412.440,2491.60
413.448,2505.93
414.457,2482.30
415.465,2495.10
416.471,2485.70
417.479,2487.67
418.487,2442.20
419.495,2459.10
420.503,2467.93
421.510,2438.40
422.518,2434.73
423.525,2425.83
424.530,2407.93
425.537,2453.33
426.544,2407.80
427.551,2385.53
428.558,2433.27
429.565,2358.40
430.571,2442.43
431.578,2411.80
432.582,2376.03
433.588,2397.20
434.595,2378.53
435.601,2408.50
436.607,2408.53
437.612,2395.33
438.618,2355.23
439.624,2376.70
440.627,2389.70
441.633,2396.07
442.638,2382.03
443.643,2395.70
444.648,2416.37
445.653,2385.50
446.658,2431.50
447.663,2411.97
448.667,2386.27
449.672,2390.97
450.674,2413.83
451.678,2406.93
452.682,2423.17
453.687,2398.50
454.690,2420.27
455.694,2481.93
456.698,2412.50
457.702,2421.30
458.705,2429.40
459.709,2443.90
460.710,2438.80
461.713,2446.73
462.716,2486.23
463.719,2441.30
464.722,2432.23
465.725,2468.27
466.727,2467.37
467.730,2468.60
468.732,2513.63
469.735,2475.60
470.737,2470.90
471.737,2523.33
472.739,2491.43
473.741,2488.83
474.742,2496.23
475.744,2516.33
476.746,2528.17
477.747,2557.60
478.748,2506.10
479.750,2522.30
480.751,2528.80
481.752,2565.20
482.753,2486.73
483.751,2535.20
484.752,2532.90
485.753,2541.27
486.753,2585.20
487.753,2558.80
488.754,2533.30
489.754,2481.83
490.754,2495.13
491.754,2502.53
492.754,2528.37
493.753,2528.90
494.753,2512.60
495.752,2518.47
496.752,2562.03
497.749,2486.97
498.748,2511.63
499.747,2492.13
500.746,2471.70
501.745,2483.80
502.744,2503.33
503.742,2499.33
504.741,2480.10
505.739,2462.73
506.737,2475.27
507.735,2453.63
508.734,2447.33
509.732,2469.57
510.729,2479.90
511.727,2425.20
512.725,2453.10
513.720,2479.73
514.718,2443.50
515.715,2398.57
516.712,2441.00
517.709,2419.87
518.706,2422.93
519.703,2372.73
520.700,2408.67
521.696,2398.97
522.693,2426.50
523.689,2436.30
524.686,2450.03
525.682,2410.33
526.678,2400.17
527.674,2409.70
528.670,2460.07
529.666,2472.80
530.661,2437.77
531.657,2440.47
532.652,2505.70
533.648,2464.37
534.641,2469.77
535.636,2417.67
536.631,2465.03
537.626,2511.93
538.621,2468.93
539.616,2464.47
540.610,2476.37
541.605,2475.93
542.599,2503.93
543.593,2507.57
544.587,2460.20
545.581,2514.13
546.575,2536.33
547.569,2543.50
548.563,2549.17
549.557,2528.50
550.550,2530.43
551.543,2488.60
552.537,2484.27
553.530,2472.03
554.523,2518.93
555.516,2509.57
556.509,2529.43
557.502,2530.50
558.494,2528.60
559.487,2555.73
560.479,2548.77
561.472,2517.10
562.464,2535.73
563.456,2498.50
564.448,2521.10
565.440,2521.37
566.432,2532.83
567.423,2501.10
568.415,2507.27
569.404,2565.37
570.396,2552.57
571.387,2555.87
572.378,2550.53
573.369,2540.27
574.360,2534.77
575.351,2603.23
576.341,2585.87
577.332,2590.70
578.323,2575.40
579.313,2538.07
580.303,2604.73
581.293,2650.77
582.283,2638.30
583.273,2605.13
584.263,2607.63
585.253,2623.47
586.243,2621.90
587.232,2632.10
588.222,2580.10
589.211,2630.67
590.200,2628.27
591.189,2640.80
592.178,2690.50
593.167,2625.73
594.156,2609.03
595.145,2621.20
596.133,2636.07
597.122,2633.77
598.110,2623.93
599.098,2633.43
600.086,2615.00
601.074,2669.20
602.062,2666.33
603.050,2641.33
604.038,2606.47
605.025,2596.53
606.013,2632.77
607.000,2640.03
607.987,2610.13
608.975,2635.40
609.962,2584.97
610.949,2601.37
611.936,2588.77
612.922,2593.53
613.909,2582.97
614.895,2533.63
615.882,2566.00
616.868,2608.40
617.854,2520.30
618.841,2499.10
619.826,2498.80
620.812,2474.50
621.798,2470.20
622.784,2446.60
623.769,2450.60
624.755,2447.13
625.740,2426.00
626.725,2397.60
627.711,2435.93
628.698,2428.07
629.683,2369.47
630.667,2341.37
631.652,2338.23
632.637,2324.13
633.621,2323.03
634.606,2277.00
635.590,2262.17
636.574,2274.67
637.558,2249.53
638.542,2237.33
639.526,2233.77
640.510,2193.60
641.493,2197.13
642.477,2186.07
643.460,2234.83
644.444,2179.00
645.427,2181.30
646.410,2151.50
647.393,2165.07
648.376,2152.83
649.359,2179.83
650.341,2127.67
651.324,2097.57
652.307,2096.23
653.289,2099.87
654.271,2122.50
655.253,2105.60
656.235,2071.43
657.217,2120.30
658.199,2093.10
659.181,2125.37
660.163,2084.93
661.144,2024.43
662.126,2035.57
663.107,2037.00
664.088,2059.60
665.069,2006.17
666.050,2025.13
667.033,1996.33
668.014,1972.93
668.995,2011.80
669.975,1967.63
670.956,1995.90
671.936,1924.87
672.916,1920.60
673.896,1907.33
674.876,1923.60
675.856,1940.97
676.836,1901.57
677.816,1872.80
678.795,1886.13
679.775,1873.70
680.754,1844.90
681.734,1873.77
682.713,1783.53
683.692,1789.87
684.671,1803.30
685.650,1816.23
686.629,1776.77
687.607,1767.50
688.586,1757.23
689.564,1766.93
690.543,1747.83
691.523,1723.50
692.501,1698.40
693.479,1714.50
694.457,1694.00
695.435,1712.63
696.413,1684.17
697.390,1708.07
698.368,1659.17
699.345,1687.97
700.322,1671.83
701.300,1651.47
702.277,1662.57
703.254,1642.97
704.231,1639.30
705.207,1634.80
706.184,1640.13
707.161,1623.23
708.137,1633.47
709.113,1606.10
710.090,1613.07
711.068,1599.03
712.044,1573.27
713.020,1559.10
713.996,1561.70
714.971,1569.77
715.947,1587.07
716.922,1569.03
717.898,1565.47
718.873,1529.93
719.848,1536.87
720.823,1560.90
721.798,1520.07
722.773,1530.37
723.748,1511.53
724.723,1495.63
725.697,1496.90
726.672,1528.50
727.646,1522.33
728.622,1529.67
729.596,1496.70
730.570,1441.53
731.544,1487.77
732.518,1498.90
733.492,1490.57
734.466,1480.37
735.439,1483.93
736.413,1476.90
737.386,1419.47
738.359,1452.97
739.332,1489.13
740.305,1458.87
741.278,1437.27
742.251,1479.80
743.224,1453.80
744.196,1445.27
745.171,1407.90
746.143,1413.27
747.115,1464.83
748.087,1441.23
749.059,1440.10
750.031,1392.87
751.003,1406.20
751.975,1401.43
752.947,1400.80
753.918,1390.63
754.890,1383.37
755.861,1379.30
756.832,1361.93
757.803,1417.47
758.774,1374.87
759.747,1414.20
760.718,1390.77
761.689,1376.60
762.659,1382.43
763.630,1364.17
764.600,1365.00
765.570,1381.77
766.540,1350.43
767.510,1322.87
768.480,1360.57
769.450,1385.27
770.420,1318.53
771.390,1349.20
772.359,1372.37
773.329,1344.50
774.300,1342.60
775.269,1348.83
776.238,1273.40
777.207,1349.80
778.176,1325.53
779.145,1348.57
780.114,1320.90
781.083,1315.80
782.051,1310.10
783.019,1325.17
783.988,1352.27
784.956,1326.80
785.924,1296.37
786.894,1262.30
787.862,1242.43
788.830,1264.97
789.797,1295.13
790.765,1309.13
791.732,1274.83
792.700,1301.70
793.667,1274.27
794.634,1269.50
795.601,1264.50
796.568,1245.50
797.535,1264.33
798.502,1230.17
799.468,1277.67
800.437,1286.87
801.403,1234.83
802.370,1242.53
803.336,1212.43
804.302,1230.27
805.268,1276.40
806.234,1244.33
807.200,1245.77
808.166,1222.27
809.131,1226.20
810.097,1240.20
811.062,1231.37
812.027,1197.17
812.994,1218.50
813.960,1178.37
814.925,1184.57
815.889,1206.13
816.854,1175.40
817.819,1203.90
818.783,1164.23
819.748,1167.70
820.712,1202.87
821.677,1165.70
822.641,1190.27
823.605,1166.93
824.571,1181.17
825.534,1197.37
826.498,1184.60
827.462,1178.67
828.425,1191.70
829.389,1182.87
830.352,1158.87
831.315,1179.67
832.279,1139.47
833.242,1186.20
834.204,1148.87
835.167,1155.17
836.132,1202.83
837.095,1139.70
838.057,1195.80
839.020,1119.13
839.982,1112.97
840.944,1111.13
841.906,1149.97
842.868,1142.53
843.830,1119.30
844.792,1148.77
845.753,1147.30
846.715,1132.63
847.679,1146.37
848.640,1144.93
849.601,1138.80
850.562,1138.17
851.523,1147.73
852.484,1099.97
853.445,1146.50
854.406,1133.87
855.367,1127.23
856.327,1108.37
857.288,1152.87
858.248,1100.77
859.210,1134.20
860.170,1106.10
861.130,1127.27
862.090,1137.73
863.050,1146.50
864.010,1091.03
864.969,1080.00
865.929,1068.40
866.888,1104.23
867.848,1116.30
868.807,1071.10
869.766,1137.27
870.727,1054.40
871.686,1099.93
872.645,1087.67
873.604,1120.07
874.562,1092.70
875.521,1104.20
876.479,1056.70
877.437,1103.07
878.396,1104.20
879.354,1049.20
880.312,1110.10
881.270,1103.87
882.229,1112.63
883.187,1119.57
884.145,1106.77
885.102,1118.30
886.059,1074.90
887.017,1078.13
887.974,1029.20
888.931,1088.70
889.888,1104.67
890.845,1082.17
891.802,1077.27
892.758,1068.77
893.717,1107.70
894.673,1126.73
895.630,1090.50
896.586,1117.77
897.542,1099.40
898.498,1090.73
899.454,1122.57
900.410,1095.17
901.366,1089.87
902.321,1097.03
903.277,1130.83
904.232,1121.50
905.189,1108.83
906.145,1085.73
907.100,1073.67
908.055,1070.93
909.010,1099.83
909.965,1116.17
910.919,1083.20
911.874,1097.23
912.828,1100.87
913.783,1062.53
914.737,1116.80
915.693,1097.40
916.648,1099.70
917.602,1090.23
918.555,1088.67
919.509,1108.73
920.463,1139.00
921.417,1098.60
922.370,1093.13
923.324,1087.90
924.277,1094.90
925.230,1079.80
926.183,1089.47
927.138,1083.87
928.091,1077.50
929.044,1126.97
929.996,1134.07
930.949,1120.37
931.902,1099.90
932.854,1115.37
933.806,1141.60
934.758,1113.03
935.711,1123.07
936.663,1103.47
937.614,1122.77
938.568,1133.47
939.520,1101.20
940.471,1104.00
941.423,1088.77
942.374,1078.07
943.326,1086.00
944.277,1128.63
945.228,1109.60
946.179,1119.93
947.130,1082.40
948.080,1137.03
949.031,1115.13
949.984,1122.20
950.934,1123.37
951.884,1139.83
952.835,1052.63
953.785,1089.03
954.735,1103.13
955.685,1117.73
956.635,1091.87
957.585,1137.20
958.534,1119.03
959.484,1135.07
960.433,1093.33
961.383,1131.93
962.334,1075.27
963.283,1124.00
964.232,1118.53
965.181,1084.77
966.130,1144.93
967.079,1147.87
968.027,1107.87
968.976,1163.07
969.924,1124.00
970.873,1106.00
971.821,1127.57
972.769,1129.67
973.719,1121.33
974.667,1155.33
975.615,1075.17
976.562,1119.97
977.510,1117.57
978.458,1149.97
979.405,1121.90
980.352,1139.50
981.300,1139.43
982.247,1117.53
983.194,1160.37
984.141,1159.43
985.088,1114.60
986.036,1125.43
986.983,1087.17
987.930,1140.67
988.876,1113.60
989.822,1112.37
990.769,1141.60
991.715,1141.67
992.661,1117.63
993.607,1112.53
994.553,1120.40
995.498,1153.00
996.444,1125.93
997.389,1148.27
998.337,1130.07
999.282,1132.30
1000.227,1101.63
1001.173,1106.17
1002.118,1132.93
1003.062,1131.87
1004.007,1133.13
1004.952,1125.03
1005.897,1178.80
1006.841,1113.90
1007.786,1122.07
1008.730,1099.33
1009.674,1142.93
1010.618,1144.77
1011.564,1113.93
1012.508,1147.33
1013.452,1123.60
1014.396,1120.60
1015.339,1162.60
1016.283,1142.97
1017.226,1145.53
1018.170,1143.33
1019.113,1152.97
1020.056,1133.00
1020.999,1136.00
1021.942,1171.77
1022.885,1150.43
1023.828,1182.83
1024.770,1147.07
1025.715,1154.50
1026.657,1189.17
1027.600,1174.40
1028.542,1154.13
1029.484,1141.50
1030.426,1152.30
1031.368,1176.67
1032.310,1187.03
1033.251,1159.97
1034.193,1187.17
1035.135,1193.17
1036.076,1181.23
1037.017,1169.30
1037.959,1165.63
1038.900,1151.43
1039.843,1223.00
1040.784,1189.37
1041.725,1185.70
1042.665,1216.17
1043.606,1203.63
1044.547,1196.43
1045.487,1192.07
1046.427,1242.73
1047.368,1208.07
1048.308,1207.47
1049.248,1212.10
1050.188,1222.97
1051.128,1213.33
1052.067,1198.03
1053.007,1262.20
1053.947,1228.97
1054.886,1239.23
1055.827,1240.43
1056.766,1282.40
1057.706,1235.13
1058.645,1252.47
1059.584,1269.30
1060.522,1229.10
1061.461,1274.63
1062.400,1267.93
1063.338,1260.90
1064.277,1294.67
1065.215,1275.50
1066.154,1263.20
1067.092,1295.70
1068.030,1263.20
1068.968,1335.40
1069.906,1246.50
1070.843,1300.13
1071.781,1299.07
1072.720,1331.80
1073.658,1326.17
1074.595,1286.07
1075.533,1351.43
1076.470,1304.30
1077.407,1328.10
1078.344,1334.73
1079.281,1335.00
1080.217,1309.50
1081.154,1296.00
1082.091,1316.93
1083.027,1355.47
1083.964,1344.70
1084.900,1320.97
1085.836,1335.73
1086.772,1323.93
1087.708,1355.23
1088.644,1318.10
1089.580,1324.13
1090.515,1389.80
1091.451,1339.03
1092.388,1349.87
1093.324,1323.10
1094.259,1345.17
1095.194,1339.20
1096.129,1330.37
1097.064,1328.07
1097.999,1330.33
1098.934,1310.93
1099.869,1299.23
1100.803,1322.10
1101.738,1317.80
1102.672,1319.03
1103.607,1317.80
1104.541,1293.67
1105.475,1325.83
1106.409,1294.07
1107.343,1295.97
1108.277,1274.80
1109.210,1291.33
1110.144,1270.70
1111.078,1286.30
1112.011,1260.90
1112.944,1229.57
1113.878,1245.23
1114.811,1268.27
1115.744,1256.97
1116.678,1224.93
1117.611,1223.90
1118.544,1259.97
1119.477,1200.03
1120.409,1233.37
1121.342,1211.30
1122.274,1223.90
1123.206,1177.07
1124.138,1157.00
1125.070,1169.90
1126.002,1191.63
1126.934,1212.73
1127.866,1164.70
1128.798,1195.07
1129.729,1158.40
1130.661,1207.67
1131.592,1182.87
1132.523,1170.13
1133.454,1163.90
1134.385,1162.17
1135.317,1133.63
1136.247,1133.53
1137.178,1115.13
1138.109,1136.17
1139.039,1111.37
1139.970,1162.53
1140.900,1141.93
1141.831,1106.27
1142.761,1129.77
1143.691,1094.63
1144.621,1103.30
1145.551,1125.47
1146.480,1122.77
1147.410,1135.97
1148.340,1128.77
1149.269,1098.13
1150.199,1105.50
1151.128,1067.47
1152.057,1069.00
1152.979,1070.37
1153.898,1107.47
1154.819,1090.67
1155.739,1085.30
1156.658,1052.83
1157.579,1042.70
1158.498,1071.93
1159.419,1052.77
1160.338,1061.83
1161.256,1062.17
1162.177,1027.33
1163.095,1032.97
1164.016,1063.77
1164.934,1056.47
1165.852,1041.93
1166.772,1032.00
1167.690,1007.97
1168.610,1044.00
1169.528,1052.70
1170.446,1028.13
1171.365,1018.10
1172.283,1040.23
1173.202,1001.63
1174.120,1045.17
1175.037,1028.23
1175.956,1026.40
1176.873,1009.97
1177.792,1021.83
1178.709,1023.83
1179.626,1028.47
1180.544,1026.67
1181.461,1009.83
1182.379,1013.90
1183.296,1030.17
1184.212,1013.40
1185.130,1038.63
1186.046,1015.00
1186.962,986.77
1187.880,1034.90
1188.796,991.07
1189.714,1031.97
1190.629,1009.20
1191.545,962.67
1192.462,1049.60
1193.378,1002.40
1194.295,1016.57
1195.210,1015.30
1196.125,1012.23
1197.042,989.73
1197.957,972.33
1198.872,1017.23
1199.788,988.23
1200.703,1000.97
1201.619,1010.73
1202.534,1021.23
1203.448,1002.50
1204.364,1013.90
1205.278,982.47
1206.192,1026.53
1207.108,1013.37
1208.022,1052.57
1208.938,988.60
1209.851,995.80
1210.765,985.67
1211.680,979.67
1212.594,1018.57
1213.507,1023.80
1214.422,1018.73
1215.335,1041.50
1216.248,1033.47
1217.163,1029.97
1218.076,996.20
1218.990,998.37
1219.903,1033.57
1220.816,1009.20
1221.730,1034.93
1222.642,1038.47
1223.554,1029.37
1224.469,1001.93
1225.380,1029.17
1226.292,1041.33
1227.206,1024.03
1228.118,1029.90
1229.032,1024.27
1229.943,985.67
1230.855,1040.13
1231.768,1050.93
1232.679,1020.53
1233.590,1071.00
1234.503,1077.47
1235.414,1077.57
1236.325,1060.87
1237.238,1053.33
1238.149,1084.53
1239.059,1017.40
1239.972,1084.03
1240.882,1045.53
1241.793,1048.50
1242.705,1092.20
1243.615,1098.60
1244.525,1077.57
1245.437,1058.27
1246.347,1056.10
1247.259,1060.10
1248.168,1063.90
1249.078,1038.77
1249.989,1048.73
1250.899,1068.20
1251.808,1075.57
1252.719,1076.73
1253.628,1067.47
1254.537,1080.70
1255.448,1080.73
1256.357,1119.27
1257.266,1084.43
1258.176,1087.17
1259.085,1108.00
1259.993,1091.43
1260.904,1068.17
1261.812,1071.27
1262.720,1079.00
1263.630,1084.57
1264.538,1080.83
1265.446,1072.67
1266.356,1063.90
1267.263,1090.07
1268.171,1070.67
1269.080,1102.87
1269.988,1076.57
1270.895,1054.17
1271.804,1078.10
1272.711,1076.03
1273.619,1056.10
1274.527,1048.87
1275.434,1064.57
1276.341,1105.30
1277.248,1043.70
1278.156,1089.43
1279.063,1099.50
1279.969,1059.07
1280.877,1086.67
1281.783,1078.50
1282.690,1084.43
1283.598,1079.17
1284.503,1074.70
1285.409,1107.57
1286.317,1051.80
1287.223,1075.00
1288.128,1081.63
1289.036,1084.63
1289.941,1055.67
1290.846,1064.30
1291.751,1076.97
1292.658,1091.90
1293.563,1061.60
1294.468,1044.67
1295.375,1059.80
1296.280,1028.57
1297.184,1006.53
1298.091,1062.10
1298.995,1026.80
1299.900,1047.90
1300.806,1046.93
1301.710,979.43
1302.614,1040.10
1303.518,1055.80
1304.424,1001.27
1305.327,1015.00
1306.231,1031.30
1307.137,1005.17
1308.040,1004.23
1308.943,1011.90
1309.847,1035.23
1310.752,1002.87
1311.655,1002.60
1312.558,973.70
1313.463,966.03
1314.366,1050.90
1315.269,977.40
1316.171,961.77
1317.076,973.70
1317.978,968.93
1318.881,936.40
1319.785,958.50
1320.687,964.57
1321.589,942.93
1322.491,956.80
1323.395,928.83
1324.297,963.70
