RamanScope Measure Spectrum Data V3.72

<< MEASURE CONDITION >>
Exposure Type,Aver
Exposure Time [sec],15
Exposure Count,30
Measure Time,2023/07/04 16:13:03
Data Name,""
Data Comment,""
Rayleigh Wave[nm],532.0

<< SAMPLE SPECTRUM >>
Wave[dcm-1],No280
146.591,437.17
147.626,529.93
148.664,671.17
149.699,764.13
150.737,904.83
151.772,1012.60
152.809,1159.60
153.846,1274.03
154.881,1387.33
155.918,1482.10
156.953,1546.27
157.989,1687.73
159.026,1756.67
160.060,1800.33
161.096,1841.00
162.130,1897.83
163.167,1947.23
164.200,1979.37
165.236,2004.77
166.272,2056.50
167.305,2064.07
168.341,2125.80
169.374,2104.33
170.409,2187.57
171.445,2183.07
172.477,2212.83
173.512,2251.90
174.545,2323.63
175.580,2299.30
176.614,2314.80
177.647,2326.50
178.681,2333.50
179.713,2368.70
180.747,2373.17
181.781,2381.27
182.813,2356.63
183.847,2377.37
184.878,2394.93
185.912,2375.97
186.945,2457.97
187.976,2391.77
189.010,2408.80
190.043,2478.00
191.073,2450.67
192.106,2470.43
193.137,2475.47
194.170,2515.13
195.202,2544.63
196.232,2517.30
197.265,2607.07
198.297,2632.13
199.327,2597.40
200.359,2651.97
201.388,2691.63
202.420,2670.13
203.452,2706.60
204.481,2808.73
205.512,2766.03
206.544,2822.43
207.573,2868.80
208.604,2922.80
209.635,3016.13
210.663,3059.60
211.694,3172.50
212.725,3292.77
213.753,3350.83
214.783,3529.43
215.813,3633.90
216.841,3805.37
217.871,3978.73
218.899,4223.23
219.929,4557.37
220.959,4842.37
221.986,5168.07
223.016,5457.10
224.045,5736.03
225.072,5875.93
226.101,5985.53
227.130,5933.73
228.157,5720.80
229.185,5435.27
230.214,5155.67
231.241,4855.97
232.269,4500.03
233.297,4244.00
234.323,3993.97
235.351,3804.83
236.379,3703.80
237.407,3559.13
238.433,3469.67
239.460,3410.57
240.488,3349.23
241.513,3332.90
242.540,3364.93
243.568,3291.83
244.592,3285.00
245.619,3315.83
246.646,3321.20
247.671,3285.80
248.697,3359.40
249.724,3326.03
250.748,3351.93
251.774,3333.67
252.801,3337.97
253.827,3267.20
254.850,3236.33
255.876,3219.43
256.902,3222.10
257.925,3218.63
258.951,3240.23
259.976,3233.27
260.999,3260.93
262.024,3274.63
263.049,3291.07
264.074,3311.20
265.097,3346.60
266.122,3365.03
267.146,3461.77
268.168,3447.80
269.193,3561.33
270.217,3612.83
271.241,3682.83
272.263,3745.33
273.287,3814.77
274.311,3976.37
275.332,4032.97
276.356,4173.77
277.379,4316.57
278.402,4415.13
279.424,4574.63
280.447,4652.37
281.470,4850.03
282.492,4945.73
283.513,5087.00
284.536,5189.80
285.558,5253.20
286.581,5348.40
287.601,5331.57
288.623,5349.40
289.645,5284.67
290.665,5215.77
291.687,5104.10
292.709,5017.10
293.730,4871.23
294.750,4826.03
295.771,4649.13
296.792,4522.87
297.813,4433.97
298.832,4279.03
299.853,4197.10
300.874,4000.40
301.895,3889.07
302.913,3726.33
303.934,3672.07
304.954,3581.10
305.975,3400.37
306.993,3340.23
308.013,3249.17
309.033,3152.50
310.052,3112.03
311.072,3016.03
312.090,2994.37
313.109,2952.07
314.129,2886.83
315.148,2815.03
316.165,2760.63
317.184,2714.73
318.203,2687.20
319.222,2628.73
320.238,2611.57
321.257,2620.93
322.275,2536.13
323.294,2560.07
324.312,2515.03
325.328,2502.43
326.346,2528.40
327.364,2441.17
328.382,2452.30
329.397,2472.53
330.415,2410.87
331.432,2425.07
332.450,2409.70
333.467,2396.10
334.482,2414.97
335.499,2335.60
336.516,2399.20
337.533,2355.53
338.547,2351.07
339.564,2379.03
340.580,2338.70
341.597,2370.43
342.613,2375.50
343.627,2363.17
344.643,2349.90
345.659,2356.33
346.675,2314.77
347.690,2352.90
348.704,2347.67
349.719,2323.27
350.735,2325.13
351.750,2319.33
352.765,2305.43
353.778,2318.77
354.793,2341.27
355.808,2313.83
356.822,2309.63
357.837,2301.37
358.851,2352.60
359.864,2331.47
360.878,2327.10
361.892,2337.93
362.906,2382.33
363.920,2396.83
364.932,2394.83
365.945,2392.43
366.959,2411.00
367.972,2395.00
368.986,2404.40
369.999,2436.43
371.010,2451.00
372.023,2496.90
373.036,2507.27
374.049,2548.40
375.061,2597.77
376.072,2573.07
377.084,2627.40
378.097,2584.40
379.109,2686.37
380.121,2754.13
381.133,2750.83
382.143,2725.67
383.155,2793.70
384.166,2856.03
385.178,2931.33
386.189,2946.60
387.201,2959.57
388.212,2993.40
389.221,3045.90
390.232,3086.47
391.243,3130.10
392.254,3115.50
393.264,3196.73
394.275,3206.50
395.283,3247.13
396.294,3254.47
397.304,3262.67
398.314,3228.20
399.324,3229.80
400.334,3247.97
401.344,3232.67
402.351,3206.67
403.361,3173.10
404.370,3169.10
405.380,3084.87
406.389,3081.40
407.398,3033.77
408.407,2965.70
409.414,2916.37
410.423,2898.57
411.431,2839.90
412.440,2789.93
413.448,2731.43
414.457,2698.80
415.465,2631.87
416.471,2660.60
417.479,2579.83
418.487,2560.80
419.495,2529.70
420.503,2450.37
421.510,2479.13
422.518,2412.50
423.525,2390.50
424.530,2362.93
425.537,2323.47
426.544,2342.50
427.551,2300.87
428.558,2338.10
429.565,2253.40
430.571,2247.47
431.578,2280.50
432.582,2274.03
433.588,2203.43
434.595,2234.33
435.601,2225.53
436.607,2248.53
437.612,2186.27
438.618,2248.83
439.624,2169.67
440.627,2182.33
441.633,2189.57
442.638,2198.50
443.643,2148.60
444.648,2189.93
445.653,2098.60
446.658,2173.67
447.663,2193.10
448.667,2184.17
449.672,2185.67
450.674,2197.90
451.678,2141.13
452.682,2164.40
453.687,2144.67
454.690,2190.47
455.694,2171.93
456.698,2118.37
457.702,2187.10
458.705,2207.90
459.709,2156.43
460.710,2169.17
461.713,2200.03
462.716,2215.83
463.719,2266.20
464.722,2223.77
465.725,2180.43
466.727,2239.77
467.730,2275.27
468.732,2230.63
469.735,2233.17
470.737,2244.87
471.737,2214.63
472.739,2289.20
473.741,2297.77
474.742,2294.50
475.744,2275.30
476.746,2280.57
477.747,2300.63
478.748,2300.83
479.750,2320.90
480.751,2303.70
481.752,2295.73
482.753,2344.40
483.751,2327.87
484.752,2355.10
485.753,2344.43
486.753,2308.03
487.753,2349.60
488.754,2338.97
489.754,2322.60
490.754,2346.77
491.754,2308.73
492.754,2324.60
493.753,2368.13
494.753,2321.17
495.752,2347.60
496.752,2324.77
497.749,2298.50
498.748,2320.03
499.747,2256.60
500.746,2315.93
501.745,2250.20
502.744,2274.97
503.742,2279.90
504.741,2251.43
505.739,2249.33
506.737,2224.30
507.735,2242.23
508.734,2232.87
509.732,2252.47
510.729,2228.53
511.727,2193.03
512.725,2189.27
513.720,2171.83
514.718,2153.70
515.715,2174.70
516.712,2133.83
517.709,2155.77
518.706,2157.10
519.703,2162.33
520.700,2139.30
521.696,2147.33
522.693,2163.70
523.689,2171.73
524.686,2121.93
525.682,2163.10
526.678,2129.27
527.674,2137.10
528.670,2144.60
529.666,2161.77
530.661,2222.10
531.657,2092.57
532.652,2171.20
533.648,2208.23
534.641,2184.10
535.636,2204.00
536.631,2200.00
537.626,2226.17
538.621,2175.50
539.616,2203.50
540.610,2217.20
541.605,2196.40
542.599,2215.13
543.593,2241.57
544.587,2195.67
545.581,2263.70
546.575,2286.37
547.569,2269.43
548.563,2253.30
549.557,2217.90
550.550,2300.40
551.543,2246.43
552.537,2255.93
553.530,2334.27
554.523,2303.53
555.516,2312.30
556.509,2308.03
557.502,2315.87
558.494,2336.27
559.487,2302.13
560.479,2284.07
561.472,2346.27
562.464,2336.57
563.456,2329.77
564.448,2337.30
565.440,2314.57
566.432,2336.50
567.423,2370.63
568.415,2360.53
569.404,2372.57
570.396,2356.33
571.387,2405.17
572.378,2457.00
573.369,2425.37
574.360,2413.07
575.351,2461.60
576.341,2466.07
577.332,2464.20
578.323,2507.33
579.313,2503.00
580.303,2505.50
581.293,2562.30
582.283,2533.20
583.273,2556.70
584.263,2554.23
585.253,2601.53
586.243,2628.37
587.232,2636.07
588.222,2655.37
589.211,2700.67
590.200,2645.50
591.189,2664.33
592.178,2709.77
593.167,2642.97
594.156,2697.57
595.145,2645.63
596.133,2670.13
597.122,2677.03
598.110,2681.33
599.098,2644.47
600.086,2645.50
601.074,2633.13
602.062,2687.67
603.050,2625.77
604.038,2623.87
605.025,2629.43
606.013,2591.80
607.000,2569.60
607.987,2561.53
608.975,2564.37
609.962,2510.47
610.949,2560.83
611.936,2463.77
612.922,2482.63
613.909,2494.10
614.895,2419.33
615.882,2468.17
616.868,2418.33
617.854,2418.03
618.841,2420.40
619.826,2474.90
620.812,2369.57
621.798,2394.10
622.784,2367.97
623.769,2359.83
624.755,2329.67
625.740,2315.63
626.725,2303.97
627.711,2294.63
628.698,2306.63
629.683,2244.27
630.667,2242.77
631.652,2236.30
632.637,2200.00
633.621,2235.93
634.606,2193.10
635.590,2153.30
636.574,2108.57
637.558,2135.40
638.542,2100.87
639.526,2099.10
640.510,2104.30
641.493,2044.13
642.477,2117.20
643.460,2091.70
644.444,2009.50
645.427,2047.90
646.410,2056.07
647.393,2022.00
648.376,2024.07
649.359,2021.47
650.341,1972.70
651.324,1987.17
652.307,1921.63
653.289,1922.33
654.271,1932.50
655.253,1966.20
656.235,1937.50
657.217,1946.97
658.199,1914.67
659.181,1907.07
660.163,1910.47
661.144,1920.90
662.126,1908.00
663.107,1879.20
664.088,1870.33
665.069,1824.77
666.050,1890.67
667.033,1812.33
668.014,1838.00
668.995,1793.17
669.975,1833.77
670.956,1844.87
671.936,1841.83
672.916,1853.97
673.896,1772.07
674.876,1774.73
675.856,1803.00
676.836,1790.17
677.816,1771.93
678.795,1739.43
679.775,1731.30
680.754,1722.23
681.734,1783.60
682.713,1723.83
683.692,1735.17
684.671,1738.87
685.650,1703.93
686.629,1720.23
687.607,1678.73
688.586,1661.60
689.564,1643.07
690.543,1630.40
691.523,1641.27
692.501,1627.53
693.479,1647.43
694.457,1639.63
695.435,1587.00
696.413,1632.07
697.390,1621.33
698.368,1595.20
699.345,1563.07
700.322,1567.27
701.300,1522.63
702.277,1574.93
703.254,1557.10
704.231,1564.60
705.207,1547.57
706.184,1518.03
707.161,1543.57
708.137,1520.73
709.113,1532.57
710.090,1491.17
711.068,1525.03
712.044,1492.43
713.020,1498.43
713.996,1470.63
714.971,1448.23
715.947,1426.70
716.922,1490.97
717.898,1480.80
718.873,1471.47
719.848,1468.23
720.823,1469.40
721.798,1510.67
722.773,1453.30
723.748,1482.27
724.723,1405.73
725.697,1441.00
726.672,1457.40
727.646,1444.90
728.622,1446.40
729.596,1416.63
730.570,1429.87
731.544,1407.83
732.518,1418.97
733.492,1399.77
734.466,1376.93
735.439,1407.80
736.413,1369.47
737.386,1412.17
738.359,1361.90
739.332,1416.63
740.305,1404.27
741.278,1371.00
742.251,1436.57
743.224,1383.67
744.196,1380.50
745.171,1382.23
746.143,1366.80
747.115,1336.07
748.087,1381.77
749.059,1415.13
750.031,1424.53
751.003,1374.70
751.975,1373.97
752.947,1385.80
753.918,1388.13
754.890,1381.57
755.861,1402.70
756.832,1368.23
757.803,1379.93
758.774,1336.83
759.747,1346.63
760.718,1319.40
761.689,1313.53
762.659,1320.00
763.630,1375.37
764.600,1352.93
765.570,1292.00
766.540,1330.27
767.510,1310.40
768.480,1328.90
769.450,1334.57
770.420,1297.53
771.390,1357.03
772.359,1346.33
773.329,1367.00
774.300,1308.57
775.269,1334.37
776.238,1346.43
777.207,1332.83
778.176,1308.97
779.145,1305.80
780.114,1269.07
781.083,1324.80
782.051,1294.20
783.019,1324.97
783.988,1311.63
784.956,1318.20
785.924,1280.50
786.894,1314.10
787.862,1291.10
788.830,1289.43
789.797,1317.37
790.765,1324.37
791.732,1301.70
792.700,1272.00
793.667,1265.20
794.634,1309.77
795.601,1284.37
796.568,1292.20
797.535,1241.70
798.502,1310.87
799.468,1235.57
800.437,1231.47
801.403,1259.23
802.370,1276.80
803.336,1257.27
804.302,1257.57
805.268,1257.87
806.234,1257.00
807.200,1223.87
808.166,1205.50
809.131,1259.33
810.097,1214.77
811.062,1271.87
812.027,1238.03
812.994,1247.60
813.960,1237.90
814.925,1225.80
815.889,1241.50
816.854,1218.43
817.819,1242.27
818.783,1200.93
819.748,1247.87
820.712,1190.53
821.677,1197.43
822.641,1198.47
823.605,1214.03
824.571,1170.17
825.534,1210.90
826.498,1179.43
827.462,1189.83
828.425,1200.93
829.389,1204.23
830.352,1199.77
831.315,1182.27
832.279,1146.53
833.242,1180.03
834.204,1156.97
835.167,1166.93
836.132,1179.87
837.095,1162.37
838.057,1145.63
839.020,1157.80
839.982,1160.47
840.944,1144.00
841.906,1169.20
842.868,1157.93
843.830,1122.93
844.792,1119.73
845.753,1163.10
846.715,1149.00
847.679,1120.10
848.640,1135.67
849.601,1158.23
850.562,1128.27
851.523,1151.37
852.484,1166.90
853.445,1203.90
854.406,1114.80
855.367,1147.57
856.327,1103.57
857.288,1134.03
858.248,1144.53
859.210,1152.43
860.170,1162.03
861.130,1128.17
862.090,1151.00
863.050,1123.30
864.010,1117.50
864.969,1170.27
865.929,1105.57
866.888,1101.83
867.848,1140.93
868.807,1154.97
869.766,1138.00
870.727,1125.07
871.686,1131.87
872.645,1125.20
873.604,1125.43
874.562,1125.40
875.521,1124.03
876.479,1092.93
877.437,1092.17
878.396,1128.97
879.354,1116.03
880.312,1060.80
881.270,1092.33
882.229,1113.50
883.187,1094.63
884.145,1131.23
885.102,1128.73
886.059,1135.43
887.017,1123.67
887.974,1095.37
888.931,1123.50
889.888,1101.57
890.845,1119.27
891.802,1120.90
892.758,1130.53
893.717,1107.73
894.673,1101.63
895.630,1125.40
896.586,1118.07
897.542,1126.27
898.498,1136.73
899.454,1117.43
900.410,1140.87
901.366,1141.23
902.321,1142.53
903.277,1106.17
904.232,1101.10
905.189,1124.33
906.145,1140.20
907.100,1116.20
908.055,1091.50
909.010,1112.40
909.965,1103.97
910.919,1175.37
911.874,1116.10
912.828,1130.07
913.783,1134.40
914.737,1100.37
915.693,1143.30
916.648,1093.00
917.602,1060.23
918.555,1135.47
919.509,1127.20
920.463,1105.10
921.417,1132.67
922.370,1151.40
923.324,1158.40
924.277,1119.40
925.230,1158.17
926.183,1138.07
927.138,1159.03
928.091,1084.93
929.044,1134.27
929.996,1134.23
930.949,1133.67
931.902,1135.17
932.854,1159.90
933.806,1081.50
934.758,1152.20
935.711,1140.47
936.663,1189.37
937.614,1176.07
938.568,1162.17
939.520,1143.67
940.471,1124.00
941.423,1148.27
942.374,1176.80
943.326,1142.73
944.277,1161.10
945.228,1135.07
946.179,1152.87
947.130,1172.97
948.080,1187.67
949.031,1157.17
949.984,1200.70
950.934,1167.50
951.884,1134.63
952.835,1142.43
953.785,1166.60
954.735,1172.17
955.685,1169.00
956.635,1170.57
957.585,1187.60
958.534,1140.53
959.484,1161.83
960.433,1101.83
961.383,1154.00
962.334,1147.00
963.283,1160.30
964.232,1143.07
965.181,1173.20
966.130,1132.17
967.079,1155.33
968.027,1162.43
968.976,1175.83
969.924,1161.00
970.873,1139.87
971.821,1208.17
972.769,1144.70
973.719,1121.63
974.667,1172.93
975.615,1173.27
976.562,1186.00
977.510,1178.47
978.458,1169.63
979.405,1174.87
980.352,1155.37
981.300,1211.17
982.247,1185.27
983.194,1178.87
984.141,1169.53
985.088,1193.33
986.036,1161.33
986.983,1179.77
987.930,1171.80
988.876,1181.73
989.822,1186.13
990.769,1200.47
991.715,1216.90
992.661,1218.17
993.607,1211.07
994.553,1169.23
995.498,1204.07
996.444,1205.83
997.389,1179.67
998.337,1194.20
999.282,1186.17
1000.227,1203.60
1001.173,1171.67
1002.118,1203.20
1003.062,1200.07
1004.007,1187.70
1004.952,1219.30
1005.897,1237.60
1006.841,1183.97
1007.786,1215.50
1008.730,1251.73
1009.674,1205.17
1010.618,1216.73
1011.564,1228.13
1012.508,1205.77
1013.452,1202.20
1014.396,1243.73
1015.339,1238.40
1016.283,1219.03
1017.226,1224.73
1018.170,1238.90
1019.113,1258.63
1020.056,1229.90
1020.999,1187.70
1021.942,1233.50
1022.885,1275.87
1023.828,1249.17
1024.770,1277.57
1025.715,1249.93
1026.657,1253.50
1027.600,1262.20
1028.542,1292.30
1029.484,1233.70
1030.426,1267.03
1031.368,1289.67
1032.310,1260.37
1033.251,1265.93
1034.193,1284.33
1035.135,1302.63
1036.076,1264.43
1037.017,1236.53
1037.959,1311.17
1038.900,1328.43
1039.843,1334.37
1040.784,1294.43
1041.725,1306.27
1042.665,1312.40
1043.606,1324.73
1044.547,1322.50
1045.487,1328.30
1046.427,1311.00
1047.368,1327.07
1048.308,1330.53
1049.248,1350.53
1050.188,1334.63
1051.128,1315.73
1052.067,1343.83
1053.007,1382.13
1053.947,1360.43
1054.886,1338.90
1055.827,1314.50
1056.766,1333.57
1057.706,1319.23
1058.645,1365.47
1059.584,1363.53
1060.522,1409.83
1061.461,1368.63
1062.400,1361.17
1063.338,1368.07
1064.277,1397.93
1065.215,1428.50
1066.154,1380.20
1067.092,1392.00
1068.030,1391.40
1068.968,1451.03
1069.906,1406.80
1070.843,1365.13
1071.781,1443.03
1072.720,1405.40
1073.658,1420.10
1074.595,1436.57
1075.533,1425.10
1076.470,1400.37
1077.407,1377.73
1078.344,1390.87
1079.281,1439.87
1080.217,1436.43
1081.154,1415.70
1082.091,1441.87
1083.027,1414.57
1083.964,1453.67
1084.900,1470.43
1085.836,1458.00
1086.772,1433.07
1087.708,1441.63
1088.644,1427.77
1089.580,1455.80
1090.515,1444.90
1091.451,1446.83
1092.388,1441.83
1093.324,1483.37
1094.259,1427.03
1095.194,1505.67
1096.129,1489.77
1097.064,1464.80
1097.999,1458.03
1098.934,1437.53
1099.869,1454.23
1100.803,1480.70
1101.738,1480.60
1102.672,1462.17
1103.607,1451.93
1104.541,1444.63
1105.475,1427.03
1106.409,1442.57
1107.343,1455.50
1108.277,1427.93
1109.210,1410.97
1110.144,1420.03
1111.078,1388.50
1112.011,1418.67
1112.944,1400.23
1113.878,1420.53
1114.811,1374.90
1115.744,1398.73
1116.678,1370.57
1117.611,1415.20
1118.544,1411.53
1119.477,1357.93
1120.409,1397.87
1121.342,1342.77
1122.274,1360.67
1123.206,1347.57
1124.138,1346.73
1125.070,1310.93
1126.002,1338.13
1126.934,1315.20
1127.866,1348.57
1128.798,1342.37
1129.729,1310.70
1130.661,1302.67
1131.592,1306.23
1132.523,1341.20
1133.454,1271.90
1134.385,1291.00
1135.317,1289.93
1136.247,1297.07
1137.178,1300.07
1138.109,1275.43
1139.039,1313.40
1139.970,1306.37
1140.900,1274.10
1141.831,1268.80
1142.761,1258.23
1143.691,1272.57
1144.621,1250.90
1145.551,1268.57
1146.480,1264.20
1147.410,1271.23
1148.340,1271.77
1149.269,1277.27
1150.199,1237.30
1151.128,1257.67
1152.057,1258.10
1152.979,1204.87
1153.898,1284.27
1154.819,1268.67
1155.739,1246.87
1156.658,1222.17
1157.579,1254.27
1158.498,1267.00
1159.419,1232.30
1160.338,1241.07
1161.256,1215.23
1162.177,1215.17
1163.095,1235.43
1164.016,1240.80
1164.934,1230.17
1165.852,1225.27
1166.772,1231.37
1167.690,1206.40
1168.610,1209.03
1169.528,1213.17
1170.446,1225.57
1171.365,1220.53
1172.283,1205.23
1173.202,1182.93
1174.120,1215.33
1175.037,1194.20
1175.956,1245.00
1176.873,1189.87
1177.792,1217.20
1178.709,1237.60
1179.626,1179.50
1180.544,1218.47
1181.461,1221.27
1182.379,1212.33
1183.296,1220.40
1184.212,1207.70
1185.130,1204.63
1186.046,1202.57
1186.962,1229.17
1187.880,1196.93
1188.796,1207.37
1189.714,1228.93
1190.629,1269.80
1191.545,1195.60
1192.462,1245.97
1193.378,1194.30
1194.295,1207.40
1195.210,1211.33
1196.125,1266.90
1197.042,1258.27
1197.957,1250.47
1198.872,1241.63
1199.788,1242.40
1200.703,1268.60
1201.619,1268.83
1202.534,1207.90
1203.448,1249.47
1204.364,1212.77
1205.278,1249.77
1206.192,1261.67
1207.108,1275.87
1208.022,1275.33
1208.938,1264.37
1209.851,1276.17
1210.765,1269.60
1211.680,1263.93
1212.594,1286.83
1213.507,1308.93
1214.422,1253.13
1215.335,1304.93
1216.248,1263.70
1217.163,1310.07
1218.076,1293.80
1218.990,1329.67
1219.903,1305.87
1220.816,1279.47
1221.730,1298.83
1222.642,1287.13
1223.554,1351.33
1224.469,1324.40
1225.380,1288.77
1226.292,1318.20
1227.206,1362.50
1228.118,1368.53
1229.032,1357.53
1229.943,1358.17
1230.855,1365.67
1231.768,1361.57
1232.679,1351.87
1233.590,1362.67
1234.503,1368.77
1235.414,1380.50
1236.325,1419.33
1237.238,1433.83
1238.149,1396.63
1239.059,1458.90
1239.972,1426.23
1240.882,1437.57
1241.793,1424.10
1242.705,1455.10
1243.615,1454.70
1244.525,1477.60
1245.437,1467.83
1246.347,1481.70
1247.259,1452.07
1248.168,1459.47
1249.078,1460.03
1249.989,1503.90
1250.899,1526.87
1251.808,1517.57
1252.719,1504.53
1253.628,1519.00
1254.537,1537.07
1255.448,1521.67
1256.357,1519.67
1257.266,1529.77
1258.176,1521.83
1259.085,1558.93
1259.993,1554.93
1260.904,1538.60
1261.812,1537.50
1262.720,1598.03
1263.630,1611.90
1264.538,1592.47
1265.446,1595.27
1266.356,1582.93
1267.263,1594.53
1268.171,1600.10
1269.080,1670.17
1269.988,1615.93
1270.895,1637.50
1271.804,1630.53
1272.711,1673.37
1273.619,1639.70
1274.527,1625.37
1275.434,1663.03
1276.341,1672.90
1277.248,1661.90
1278.156,1637.77
1279.063,1666.70
1279.969,1637.00
1280.877,1655.20
1281.783,1640.97
1282.690,1687.53
1283.598,1654.73
1284.503,1675.27
1285.409,1643.43
1286.317,1626.37
1287.223,1628.27
1288.128,1672.10
1289.036,1641.90
1289.941,1649.67
1290.846,1648.07
1291.751,1647.67
1292.658,1681.80
1293.563,1626.83
1294.468,1682.87
1295.375,1689.77
1296.280,1624.87
1297.184,1672.77
1298.091,1623.00
1298.995,1637.90
1299.900,1616.60
1300.806,1599.83
1301.710,1652.53
1302.614,1592.93
1303.518,1613.90
1304.424,1597.23
1305.327,1572.87
1306.231,1564.37
1307.137,1568.17
1308.040,1574.03
1308.943,1580.87
1309.847,1537.30
1310.752,1529.33
1311.655,1571.43
1312.558,1543.37
1313.463,1545.67
1314.366,1493.30
1315.269,1485.17
1316.171,1482.10
1317.076,1470.83
1317.978,1459.87
1318.881,1492.83
1319.785,1436.80
1320.687,1446.20
1321.589,1463.47
1322.491,1429.67
