RamanScope Measure Spectrum Data V3.72

<< MEASURE CONDITION >>
Exposure Type,Aver
Exposure Time [sec],15
Exposure Count,30
Measure Time,2023/07/12 11:54:40
Data Name,""
Data Comment,""
Rayleigh Wave[nm],532.0

<< SAMPLE SPECTRUM >>
Wave[dcm-1],No13
146.591,1223.17
147.626,1432.57
148.664,1652.07
149.699,1863.07
150.737,2098.07
151.772,2334.77
152.809,2521.00
153.846,2710.37
154.881,2880.63
155.918,3027.90
156.953,3122.60
157.989,3253.70
159.026,3311.43
160.060,3386.03
161.096,3437.93
162.130,3511.50
163.167,3547.20
164.200,3645.40
165.236,3625.23
166.272,3736.10
167.305,3841.27
168.341,3886.93
169.374,3966.10
170.409,4027.20
171.445,4096.10
172.477,4189.33
173.512,4217.57
174.545,4245.83
175.580,4227.60
176.614,4219.17
177.647,4254.67
178.681,4230.20
179.713,4147.67
180.747,4147.03
181.781,4080.77
182.813,4097.60
183.847,4107.87
184.878,4116.53
185.912,4106.37
186.945,4138.00
187.976,4121.03
189.010,4127.57
190.043,4167.67
191.073,4174.47
192.106,4230.53
193.137,4249.47
194.170,4312.93
195.202,4334.37
196.232,4303.80
197.265,4426.83
198.297,4536.23
199.327,4541.90
200.359,4587.13
201.388,4678.63
202.420,4708.53
203.452,4843.53
204.481,4940.17
205.512,4983.20
206.544,5084.63
207.573,5208.47
208.604,5289.40
209.635,5428.83
210.663,5491.60
211.694,5572.23
212.725,5763.30
213.753,5815.50
214.783,5907.33
215.813,5854.37
216.841,5847.17
217.871,5854.13
218.899,5742.63
219.929,5716.10
220.959,5606.30
221.986,5562.17
223.016,5451.80
224.045,5398.33
225.072,5315.93
226.101,5243.07
227.130,5134.97
228.157,5137.93
229.185,5094.07
230.214,5099.87
231.241,5016.53
232.269,5012.17
233.297,4996.93
234.323,5017.07
235.351,4973.40
236.379,5003.73
237.407,5015.83
238.433,5027.10
239.460,5063.57
240.488,5117.97
241.513,5154.47
242.540,5253.00
243.568,5288.70
244.592,5341.57
245.619,5305.57
246.646,5268.20
247.671,5221.87
248.697,5163.57
249.724,5239.80
250.748,5136.87
251.774,5109.63
252.801,5117.90
253.827,5139.67
254.850,5210.83
255.876,5150.37
256.902,5113.87
257.925,5158.40
258.951,5188.83
259.976,5261.73
260.999,5249.00
262.024,5229.23
263.049,5281.03
264.074,5356.10
265.097,5357.93
266.122,5404.33
267.146,5466.03
268.168,5484.67
269.193,5547.97
270.217,5529.40
271.241,5589.77
272.263,5594.03
273.287,5605.33
274.311,5665.33
275.332,5669.57
276.356,5558.40
277.379,5534.23
278.402,5506.33
279.424,5481.13
280.447,5428.40
281.470,5351.50
282.492,5280.13
283.513,5254.40
284.536,5191.93
285.558,5169.33
286.581,5075.60
287.601,4980.63
288.623,4953.77
289.645,4879.77
290.665,4833.10
291.687,4771.17
292.709,4704.73
293.730,4668.23
294.750,4661.73
295.771,4672.60
296.792,4565.00
297.813,4479.97
298.832,4495.73
299.853,4443.27
300.874,4402.27
301.895,4363.33
302.913,4322.43
303.934,4252.53
304.954,4299.47
305.975,4060.17
306.993,4289.30
308.013,4195.20
309.033,4167.57
310.052,4186.03
311.072,4155.87
312.090,4134.17
313.109,4079.80
314.129,4054.03
315.148,4096.07
316.165,4088.77
317.184,4104.33
318.203,4031.93
319.222,4019.60
320.238,4020.27
321.257,4082.73
322.275,3999.40
323.294,4001.37
324.312,3981.80
325.328,3944.53
326.346,3976.17
327.364,3959.53
328.382,3954.37
329.397,3938.90
330.415,3935.80
331.432,3925.40
332.450,3925.73
333.467,3882.00
334.482,3902.03
335.499,3886.77
336.516,3907.47
337.533,3891.47
338.547,3868.37
339.564,3841.23
340.580,3858.47
341.597,3859.33
342.613,3852.23
343.627,3848.20
344.643,3817.73
345.659,3842.30
346.675,3824.47
347.690,3838.67
348.704,3804.27
349.719,3849.40
350.735,3799.07
351.750,3835.90
352.765,3773.93
353.778,3809.23
354.793,3736.00
355.808,3817.53
356.822,3801.17
357.837,3826.07
358.851,3801.13
359.864,3806.60
360.878,3820.83
361.892,3810.93
362.906,3838.53
363.920,3848.47
364.932,3817.10
365.945,3795.40
366.959,3846.67
367.972,3814.40
368.986,3844.93
369.999,3823.93
371.010,3832.43
372.023,3846.13
373.036,3868.20
374.049,3851.03
375.061,3890.73
376.072,3873.80
377.084,3886.33
378.097,3837.93
379.109,3884.77
380.121,3871.40
381.133,3892.60
382.143,3907.13
383.155,3864.20
384.166,3884.87
385.178,3864.73
386.189,3826.90
387.201,3862.93
388.212,3875.87
389.221,3817.30
390.232,3835.77
391.243,3858.13
392.254,3782.63
393.264,3817.17
394.275,3776.53
395.283,3799.37
396.294,3699.40
397.304,3719.73
398.314,3782.83
399.324,3759.97
400.334,3715.27
401.344,3708.70
402.351,3728.43
403.361,3683.60
404.370,3726.53
405.380,3674.63
406.389,3686.93
407.398,3627.53
408.407,3630.50
409.414,3637.13
410.423,3605.53
411.431,3635.73
412.440,3603.67
413.448,3606.67
414.457,3634.17
415.465,3562.30
416.471,3576.73
417.479,3565.33
418.487,3610.00
419.495,3590.87
420.503,3568.90
421.510,3580.53
422.518,3544.93
423.525,3572.80
424.530,3550.43
425.537,3579.53
426.544,3512.03
427.551,3532.40
428.558,3553.00
429.565,3565.90
430.571,3547.17
431.578,3530.53
432.582,3485.23
433.588,3606.13
434.595,3535.40
435.601,3503.83
436.607,3513.13
437.612,3514.80
438.618,3533.23
439.624,3520.63
440.627,3566.63
441.633,3548.03
442.638,3512.03
443.643,3523.17
444.648,3507.83
445.653,3550.27
446.658,3516.10
447.663,3557.63
448.667,3502.27
449.672,3562.47
450.674,3556.10
451.678,3555.57
452.682,3541.60
453.687,3571.70
454.690,3570.60
455.694,3617.57
456.698,3582.63
457.702,3583.03
458.705,3575.70
459.709,3540.57
460.710,3550.27
461.713,3616.77
462.716,3553.30
463.719,3567.77
464.722,3548.60
465.725,3590.87
466.727,3604.67
467.730,3558.57
468.732,3564.83
469.735,3611.97
470.737,3601.97
471.737,3661.87
472.739,3580.27
473.741,3614.23
474.742,3652.73
475.744,3630.43
476.746,3648.07
477.747,3631.13
478.748,3597.13
479.750,3603.47
480.751,3623.37
481.752,3648.37
482.753,3635.83
483.751,3594.53
484.752,3619.87
485.753,3645.37
486.753,3643.30
487.753,3648.70
488.754,3625.33
489.754,3644.57
490.754,3612.17
491.754,3632.80
492.754,3670.93
493.753,3645.53
494.753,3601.83
495.752,3607.43
496.752,3635.67
497.749,3645.50
498.748,3621.80
499.747,3593.87
500.746,3566.33
501.745,3615.60
502.744,3581.73
503.742,3539.93
504.741,3529.33
505.739,3499.43
506.737,3506.10
507.735,3472.30
508.734,3469.17
509.732,3478.83
510.729,3487.53
511.727,3468.53
512.725,3474.13
513.720,3452.40
514.718,3419.03
515.715,3392.57
516.712,3411.27
517.709,3432.90
518.706,3446.83
519.703,3430.37
520.700,3397.20
521.696,3444.90
522.693,3468.33
523.689,3442.13
524.686,3402.50
525.682,3407.00
526.678,3430.60
527.674,3444.10
528.670,3457.60
529.666,3436.00
530.661,3462.80
531.657,3714.63
532.652,3521.30
533.648,3487.57
534.641,3440.87
535.636,3433.30
536.631,3498.30
537.626,3530.53
538.621,3492.30
539.616,3512.93
540.610,3485.30
541.605,3445.70
542.599,3437.30
543.593,3449.20
544.587,3459.73
545.581,3445.43
546.575,3447.37
547.569,3446.60
548.563,3463.90
549.557,3466.93
550.550,3458.67
551.543,3422.43
552.537,3458.30
553.530,3464.47
554.523,3432.30
555.516,3434.83
556.509,3451.50
557.502,3433.87
558.494,3455.47
559.487,3489.70
560.479,3446.17
561.472,3437.50
562.464,3445.03
563.456,3410.13
564.448,3500.30
565.440,3486.33
566.432,3477.03
567.423,3502.60
568.415,3484.47
569.404,3512.97
570.396,3526.70
571.387,3518.50
572.378,3554.63
573.369,3518.00
574.360,3550.70
575.351,3559.30
576.341,3553.90
577.332,3541.33
578.323,3579.03
579.313,3630.73
580.303,3538.23
581.293,3599.87
582.283,3615.80
583.273,3631.17
584.263,3661.30
585.253,3636.77
586.243,3699.87
587.232,3704.60
588.222,3670.63
589.211,3710.17
590.200,3689.20
591.189,3735.47
592.178,3698.17
593.167,3706.07
594.156,3715.37
595.145,3731.40
596.133,3754.10
597.122,3724.80
598.110,3759.80
599.098,3758.27
600.086,3793.57
601.074,3761.70
602.062,3786.00
603.050,3751.73
604.038,3744.50
605.025,3731.43
606.013,3734.73
607.000,3684.83
607.987,3713.07
608.975,3688.43
609.962,3671.67
610.949,3628.27
611.936,3680.63
612.922,3575.23
613.909,3622.17
614.895,3569.77
615.882,3540.03
616.868,3554.33
617.854,3513.10
618.841,3487.93
619.826,3459.13
620.812,3423.53
621.798,3458.80
622.784,3398.60
623.769,3344.00
624.755,3365.03
625.740,3338.17
626.725,3298.73
627.711,3347.03
628.698,3278.07
629.683,3234.43
630.667,3262.30
631.652,3228.97
632.637,3192.30
633.621,3153.33
634.606,3117.97
635.590,3137.03
636.574,3149.77
637.558,3078.47
638.542,3055.27
639.526,3043.53
640.510,3061.97
641.493,3042.27
642.477,3018.77
643.460,3023.37
644.444,3015.53
645.427,2987.03
646.410,2957.17
647.393,3017.53
648.376,2956.63
649.359,2933.13
650.341,2936.63
651.324,2924.63
652.307,2915.90
653.289,2894.23
654.271,2919.87
655.253,2906.60
656.235,2862.60
657.217,2879.23
658.199,2862.60
659.181,2870.37
660.163,2852.07
661.144,2826.97
662.126,2846.57
663.107,2819.93
664.088,2824.10
665.069,2805.13
666.050,2789.80
667.033,2805.67
668.014,2816.57
668.995,2755.87
669.975,2757.70
670.956,2776.20
671.936,2710.67
672.916,2726.13
673.896,2736.07
674.876,2641.97
675.856,2657.57
676.836,2651.70
677.816,2665.27
678.795,2653.97
679.775,2593.03
680.754,2606.60
681.734,2562.67
682.713,2517.77
683.692,2530.57
684.671,2541.20
685.650,2520.87
686.629,2487.40
687.607,2461.00
688.586,2480.03
689.564,2469.67
690.543,2479.47
691.523,2406.10
692.501,2437.30
693.479,2419.60
694.457,2406.07
695.435,2470.30
696.413,2344.47
697.390,2363.27
698.368,2380.03
699.345,2362.70
700.322,2341.43
701.300,2306.60
702.277,2351.30
703.254,2294.20
704.231,2293.30
705.207,2328.03
706.184,2275.00
707.161,2287.93
708.137,2260.33
709.113,2273.80
710.090,2275.13
711.068,2282.33
712.044,2260.67
713.020,2231.57
713.996,2259.73
714.971,2200.80
715.947,2229.27
716.922,2214.83
717.898,2212.93
718.873,2197.27
719.848,2196.33
720.823,2209.33
721.798,2190.80
722.773,2162.77
723.748,2178.63
724.723,2156.90
725.697,2152.90
726.672,2161.67
727.646,2130.23
728.622,2159.60
729.596,2140.17
730.570,2144.97
731.544,2135.53
732.518,2114.03
733.492,2115.23
734.466,2113.47
735.439,2101.57
736.413,2129.50
737.386,2073.03
738.359,2110.77
739.332,2108.30
740.305,2066.97
741.278,2055.47
742.251,2057.50
743.224,2077.57
744.196,2084.53
745.171,2028.57
746.143,2046.63
747.115,2056.90
748.087,2028.00
749.059,1989.67
750.031,2041.87
751.003,1976.67
751.975,1987.77
752.947,1990.53
753.918,1972.83
754.890,1960.00
755.861,1968.13
756.832,1976.47
757.803,1982.03
758.774,1978.07
759.747,1947.63
760.718,1928.40
761.689,1919.57
762.659,1957.67
763.630,1904.70
764.600,1915.73
765.570,1926.73
766.540,1954.73
767.510,1907.70
768.480,1878.67
769.450,1902.10
770.420,1888.73
771.390,1865.17
772.359,1881.83
773.329,1920.27
774.300,1884.10
775.269,1878.97
776.238,1911.23
777.207,1917.63
778.176,1857.27
779.145,1825.30
780.114,1833.97
781.083,1802.20
782.051,1839.80
783.019,1815.90
783.988,1848.97
784.956,1818.53
785.924,1867.53
786.894,1831.97
787.862,1780.63
788.830,1785.73
789.797,1811.17
790.765,1815.03
791.732,1785.30
792.700,1775.43
793.667,1789.00
794.634,1774.90
795.601,1797.13
796.568,1713.97
797.535,1782.70
798.502,1728.30
799.468,1785.67
800.437,1752.47
801.403,1756.07
802.370,1766.47
803.336,1729.90
804.302,1726.97
805.268,1735.40
806.234,1754.70
807.200,1709.67
808.166,1733.37
809.131,1698.97
810.097,1707.20
811.062,1727.73
812.027,1691.87
812.994,1727.67
813.960,1693.90
814.925,1685.17
815.889,1683.70
816.854,1692.40
817.819,1684.10
818.783,1685.73
819.748,1662.07
820.712,1711.07
821.677,1672.77
822.641,1686.77
823.605,1667.27
824.571,1627.70
825.534,1699.37
826.498,1690.13
827.462,1672.60
828.425,1666.27
829.389,1667.33
830.352,1649.97
831.315,1638.60
832.279,1653.10
833.242,1649.07
834.204,1653.60
835.167,1641.30
836.132,1651.20
837.095,1618.47
838.057,1633.53
839.020,1630.63
839.982,1588.97
840.944,1624.33
841.906,1619.27
842.868,1598.37
843.830,1630.27
844.792,1612.20
845.753,1588.33
846.715,1639.77
847.679,1614.80
848.640,1616.43
849.601,1623.33
850.562,1594.20
851.523,1584.63
852.484,1607.67
853.445,1597.93
854.406,1623.73
855.367,1562.27
856.327,1575.90
857.288,1606.40
858.248,1589.47
859.210,1583.53
860.170,1567.73
861.130,1578.87
862.090,1568.13
863.050,1581.17
864.010,1585.97
864.969,1563.93
865.929,1568.50
866.888,1542.40
867.848,1598.67
868.807,1552.77
869.766,1584.20
870.727,1575.10
871.686,1596.43
872.645,1557.30
873.604,1549.17
874.562,1579.10
875.521,1530.87
876.479,1607.50
877.437,1524.77
878.396,1540.80
879.354,1573.70
880.312,1603.67
881.270,1567.00
882.229,1546.70
883.187,1539.33
884.145,1522.53
885.102,1546.30
886.059,1537.13
887.017,1598.83
887.974,1602.67
888.931,1573.20
889.888,1577.00
890.845,1551.40
891.802,1572.87
892.758,1550.70
893.717,1524.73
894.673,1545.77
895.630,1557.53
896.586,1553.83
897.542,1532.87
898.498,1535.23
899.454,1589.63
900.410,1544.17
901.366,1562.93
902.321,1588.90
903.277,1582.67
904.232,1563.20
905.189,1587.77
906.145,1571.03
907.100,1559.13
908.055,1596.23
909.010,1602.67
909.965,1564.40
910.919,1585.33
911.874,1583.73
912.828,1593.40
913.783,1600.47
914.737,1588.13
915.693,1575.60
916.648,1586.90
917.602,1589.33
918.555,1592.17
919.509,1580.50
920.463,1596.03
921.417,1595.10
922.370,1580.07
923.324,1579.07
924.277,1599.27
925.230,1577.93
926.183,1557.63
927.138,1634.00
928.091,1602.00
929.044,1600.27
929.996,1599.17
930.949,1588.73
931.902,1612.10
932.854,1613.63
933.806,1556.20
934.758,1605.03
935.711,1600.57
936.663,1652.00
937.614,1615.90
938.568,1578.63
939.520,1618.80
940.471,1574.07
941.423,1592.77
942.374,1576.23
943.326,1603.37
944.277,1577.87
945.228,1607.67
946.179,1606.97
947.130,1593.13
948.080,1598.00
949.031,1601.30
949.984,1572.50
950.934,1572.67
951.884,1603.83
952.835,1571.37
953.785,1618.37
954.735,1587.57
955.685,1581.33
956.635,1605.73
957.585,1588.90
958.534,1589.30
959.484,1552.17
960.433,1563.63
961.383,1578.40
962.334,1564.93
963.283,1582.50
964.232,1528.60
965.181,1582.50
966.130,1603.87
967.079,1581.37
968.027,1585.17
968.976,1545.87
969.924,1578.80
970.873,1578.30
971.821,1545.93
972.769,1592.77
973.719,1613.53
974.667,1563.67
975.615,1543.07
976.562,1521.83
977.510,1579.77
978.458,1604.17
979.405,1529.23
980.352,1552.77
981.300,1524.80
982.247,1558.47
983.194,1552.53
984.141,1542.30
985.088,1533.33
986.036,1536.73
986.983,1545.33
987.930,1578.73
988.876,1570.77
989.822,1524.53
990.769,1549.10
991.715,1561.33
992.661,1565.60
993.607,1545.97
994.553,1552.30
995.498,1536.60
996.444,1551.27
997.389,1494.90
998.337,1560.47
999.282,1596.13
1000.227,1511.20
1001.173,1543.03
1002.118,1528.23
1003.062,1585.70
1004.007,1538.07
1004.952,1531.17
1005.897,1527.37
1006.841,1522.00
1007.786,1507.53
1008.730,1578.17
1009.674,1546.13
1010.618,1544.20
1011.564,1533.70
1012.508,1527.43
1013.452,1518.47
1014.396,1541.13
1015.339,1516.03
1016.283,1536.00
1017.226,1535.90
1018.170,1552.53
1019.113,1546.47
1020.056,1526.30
1020.999,1545.43
1021.942,1509.60
1022.885,1518.97
1023.828,1513.57
1024.770,1595.23
1025.715,1494.00
1026.657,1531.87
1027.600,1562.03
1028.542,1496.70
1029.484,1550.57
1030.426,1582.23
1031.368,1555.43
1032.310,1547.67
1033.251,1557.03
1034.193,1542.30
1035.135,1558.50
1036.076,1556.53
1037.017,1554.23
1037.959,1567.30
1038.900,1571.50
1039.843,1557.77
1040.784,1573.00
1041.725,1550.90
1042.665,1552.37
1043.606,1587.10
1044.547,1575.80
1045.487,1610.77
1046.427,1616.13
1047.368,1578.57
1048.308,1568.27
1049.248,1608.00
1050.188,1562.70
1051.128,1559.50
1052.067,1603.77
1053.007,1602.27
1053.947,1637.27
1054.886,1603.73
1055.827,1599.87
1056.766,1608.97
1057.706,1622.17
1058.645,1647.50
1059.584,1645.97
1060.522,1636.13
1061.461,1589.27
1062.400,1614.40
1063.338,1617.50
1064.277,1659.53
1065.215,1626.37
1066.154,1655.87
1067.092,1619.90
1068.030,1655.57
1068.968,1615.70
1069.906,1654.63
1070.843,1642.40
1071.781,1683.37
1072.720,1664.90
1073.658,1676.30
1074.595,1669.07
1075.533,1655.80
1076.470,1687.10
1077.407,1673.67
1078.344,1645.80
1079.281,1684.83
1080.217,1671.57
1081.154,1658.83
1082.091,1716.33
1083.027,1700.93
1083.964,1658.97
1084.900,1707.00
1085.836,1632.93
1086.772,1670.20
1087.708,1645.73
1088.644,1682.83
1089.580,1660.53
1090.515,1657.23
1091.451,1641.00
1092.388,1701.30
1093.324,1657.73
1094.259,1666.60
1095.194,1676.93
1096.129,1677.97
1097.064,1618.10
1097.999,1670.80
1098.934,1649.83
1099.869,1622.87
1100.803,1673.40
1101.738,1616.43
1102.672,1633.17
1103.607,1628.50
1104.541,1633.33
1105.475,1635.57
1106.409,1631.70
1107.343,1555.03
1108.277,1575.37
1109.210,1631.37
1110.144,1596.77
1111.078,1578.03
1112.011,1555.20
1112.944,1555.43
1113.878,1562.87
1114.811,1597.00
1115.744,1585.87
1116.678,1542.60
1117.611,1517.53
1118.544,1527.07
1119.477,1524.03
1120.409,1535.03
1121.342,1543.67
1122.274,1500.60
1123.206,1650.97
1124.138,1481.20
1125.070,1489.23
1126.002,1517.40
1126.934,1484.70
1127.866,1533.43
1128.798,1498.83
1129.729,1481.87
1130.661,1489.07
1131.592,1507.20
1132.523,1470.77
1133.454,1450.43
1134.385,1437.43
1135.317,1439.43
1136.247,1462.93
1137.178,1459.03
1138.109,1437.90
1139.039,1440.20
1139.970,1438.43
1140.900,1418.97
1141.831,1410.00
1142.761,1390.80
1143.691,1421.27
1144.621,1420.80
1145.551,1422.53
1146.480,1415.97
1147.410,1434.07
1148.340,1400.83
1149.269,1386.23
1150.199,1405.70
1151.128,1385.87
1152.057,1375.07
1152.979,1377.17
1153.898,1355.27
1154.819,1351.60
1155.739,1354.07
1156.658,1364.70
1157.579,1358.90
1158.498,1325.37
1159.419,1343.50
1160.338,1361.20
1161.256,1344.60
1162.177,1367.83
1163.095,1362.50
1164.016,1346.83
1164.934,1303.90
1165.852,1349.17
1166.772,1333.77
1167.690,1382.63
1168.610,1349.57
1169.528,1315.27
1170.446,1290.77
1171.365,1282.93
1172.283,1303.83
1173.202,1361.07
1174.120,1329.93
1175.037,1292.10
1175.956,1313.37
1176.873,1272.20
1177.792,1294.63
1178.709,1306.37
1179.626,1277.83
1180.544,1271.27
1181.461,1310.93
1182.379,1309.27
1183.296,1324.27
1184.212,1296.87
1185.130,1277.57
1186.046,1317.63
1186.962,1315.23
1187.880,1249.53
1188.796,1302.60
1189.714,1303.60
1190.629,1284.57
1191.545,1273.70
1192.462,1300.87
1193.378,1290.00
1194.295,1329.77
1195.210,1299.17
1196.125,1343.87
1197.042,1268.17
1197.957,1271.93
1198.872,1271.57
1199.788,1307.30
1200.703,1221.77
1201.619,1312.53
1202.534,1249.07
1203.448,1275.97
1204.364,1260.00
1205.278,1288.47
1206.192,1277.17
1207.108,1230.33
1208.022,1266.17
1208.938,1286.13
1209.851,1292.37
1210.765,1216.43
1211.680,1308.07
1212.594,1274.77
1213.507,1278.00
1214.422,1279.50
1215.335,1278.17
1216.248,1267.73
1217.163,1230.47
1218.076,1251.13
1218.990,1287.53
1219.903,1280.83
1220.816,1277.40
1221.730,1255.77
1222.642,1286.87
1223.554,1280.30
1224.469,1265.03
1225.380,1251.33
1226.292,1282.00
1227.206,1261.70
1228.118,1261.33
1229.032,1274.23
1229.943,1263.70
1230.855,1279.50
1231.768,1273.70
1232.679,1280.13
1233.590,1273.87
1234.503,1226.90
1235.414,1288.83
1236.325,1265.53
1237.238,1210.80
1238.149,1217.33
1239.059,1274.40
1239.972,1269.80
1240.882,1262.13
1241.793,1304.20
1242.705,1265.43
1243.615,1294.40
1244.525,1248.23
1245.437,1300.37
1246.347,1272.37
1247.259,1287.80
1248.168,1299.17
1249.078,1316.90
1249.989,1270.03
1250.899,1294.23
1251.808,1252.80
1252.719,1306.73
1253.628,1281.73
1254.537,1261.03
1255.448,1258.47
1256.357,1260.73
1257.266,1269.13
1258.176,1260.57
1259.085,1270.07
1259.993,1267.20
1260.904,1258.50
1261.812,1309.67
1262.720,1295.47
1263.630,1276.63
1264.538,1297.93
1265.446,1292.23
1266.356,1300.77
1267.263,1267.63
1268.171,1276.60
1269.080,1257.60
1269.988,1261.83
1270.895,1266.83
1271.804,1265.97
1272.711,1266.07
1273.619,1254.27
1274.527,1271.63
1275.434,1277.00
1276.341,1291.93
1277.248,1247.47
1278.156,1237.93
1279.063,1276.60
1279.969,1214.73
1280.877,1254.50
1281.783,1281.47
1282.690,1249.73
1283.598,1269.53
1284.503,1242.80
1285.409,1251.33
1286.317,1255.57
1287.223,1244.33
1288.128,1244.57
1289.036,1261.53
1289.941,1250.83
1290.846,1237.70
1291.751,1196.07
1292.658,1239.67
1293.563,1250.13
1294.468,1185.30
1295.375,1240.07
1296.280,1235.60
1297.184,1206.00
1298.091,1237.87
1298.995,1223.80
1299.900,1197.87
1300.806,1226.53
1301.710,1196.00
1302.614,1212.60
1303.518,1242.23
1304.424,1222.53
1305.327,1218.40
1306.231,1186.50
1307.137,1164.93
1308.040,1174.13
1308.943,1217.13
1309.847,1213.13
1310.752,1173.30
1311.655,1187.67
1312.558,1182.30
1313.463,1174.73
1314.366,1200.53
1315.269,1158.10
1316.171,1190.80
1317.076,1158.30
1317.978,1144.57
1318.881,1155.80
1319.785,1172.43
1320.687,1136.70
1321.589,1119.53
1322.491,1161.23
