RamanScope Measure Spectrum Data V3.72

<< MEASURE CONDITION >>
Exposure Type,Aver
Exposure Time [sec],15
Exposure Count,30
Measure Time,2023/07/05 09:23:39
Data Name,""
Data Comment,""
Rayleigh Wave[nm],532.0

<< SAMPLE SPECTRUM >>
Wave[dcm-1],No317
146.591,459.03
147.626,564.63
148.664,647.50
149.699,740.73
150.737,837.67
151.772,937.30
152.809,1063.37
153.846,1101.77
154.881,1224.20
155.918,1266.27
156.953,1369.07
157.989,1417.53
159.026,1472.17
160.060,1483.30
161.096,1504.93
162.130,1564.23
163.167,1595.73
164.200,1632.80
165.236,1661.43
166.272,1673.07
167.305,1704.07
168.341,1758.03
169.374,1775.70
170.409,1773.80
171.445,1816.83
172.477,1856.40
173.512,1878.17
174.545,1897.33
175.580,1968.80
176.614,2004.30
177.647,1982.37
178.681,1998.50
179.713,2016.67
180.747,2042.97
181.781,2030.23
182.813,2011.87
183.847,2023.77
184.878,2076.53
185.912,2058.97
186.945,2084.77
187.976,2117.37
189.010,2129.10
190.043,2109.97
191.073,2182.20
192.106,2222.63
193.137,2254.17
194.170,2292.03
195.202,2364.80
196.232,2374.63
197.265,2461.07
198.297,2529.73
199.327,2552.73
200.359,2658.13
201.388,2716.00
202.420,2807.70
203.452,2895.03
204.481,3043.50
205.512,3134.17
206.544,3287.60
207.573,3426.20
208.604,3600.50
209.635,3856.17
210.663,4056.67
211.694,4330.13
212.725,4601.53
213.753,4863.97
214.783,5150.17
215.813,5411.37
216.841,5632.43
217.871,5816.07
218.899,5920.53
219.929,5986.27
220.959,6000.53
221.986,5844.23
223.016,5713.93
224.045,5464.40
225.072,5223.37
226.101,4929.00
227.130,4612.47
228.157,4366.20
229.185,4159.90
230.214,3970.17
231.241,3835.37
232.269,3666.37
233.297,3506.97
234.323,3437.67
235.351,3355.60
236.379,3268.03
237.407,3227.53
238.433,3154.33
239.460,3089.07
240.488,3090.70
241.513,3084.03
242.540,3061.97
243.568,3049.70
244.592,3073.83
245.619,3082.10
246.646,3069.43
247.671,3094.67
248.697,3119.37
249.724,3075.10
250.748,3076.17
251.774,3124.70
252.801,3082.77
253.827,3177.43
254.850,3189.93
255.876,3211.20
256.902,3284.20
257.925,3320.10
258.951,3353.23
259.976,3421.13
260.999,3493.30
262.024,3530.13
263.049,3606.47
264.074,3687.63
265.097,3772.07
266.122,3826.70
267.146,3927.80
268.168,3986.17
269.193,4098.20
270.217,4189.77
271.241,4262.47
272.263,4337.90
273.287,4439.57
274.311,4514.90
275.332,4502.67
276.356,4626.07
277.379,4643.87
278.402,4629.30
279.424,4622.03
280.447,4599.33
281.470,4541.43
282.492,4534.03
283.513,4466.10
284.536,4371.47
285.558,4327.43
286.581,4178.07
287.601,4102.53
288.623,4035.10
289.645,3953.77
290.665,3851.27
291.687,3757.20
292.709,3649.30
293.730,3543.43
294.750,3485.73
295.771,3378.20
296.792,3296.90
297.813,3214.03
298.832,3135.97
299.853,3026.87
300.874,2894.97
301.895,2901.17
302.913,2823.80
303.934,2783.40
304.954,2651.93
305.975,2623.07
306.993,2593.83
308.013,2542.43
309.033,2463.83
310.052,2443.10
311.072,2382.93
312.090,2372.43
313.109,2346.37
314.129,2264.50
315.148,2284.13
316.165,2220.70
317.184,2221.57
318.203,2209.43
319.222,2131.47
320.238,2138.30
321.257,2173.57
322.275,2099.37
323.294,2053.73
324.312,2050.13
325.328,2067.23
326.346,2041.37
327.364,2083.63
328.382,2067.50
329.397,2043.83
330.415,2032.37
331.432,2015.03
332.450,2002.87
333.467,1966.33
334.482,2028.73
335.499,2007.70
336.516,2007.13
337.533,1981.30
338.547,1970.47
339.564,1985.03
340.580,2014.23
341.597,1963.77
342.613,1997.87
343.627,1931.80
344.643,1947.90
345.659,1952.57
346.675,1964.70
347.690,1927.80
348.704,1972.37
349.719,1933.70
350.735,1958.97
351.750,1968.00
352.765,1966.73
353.778,1968.53
354.793,1940.17
355.808,2004.30
356.822,1992.83
357.837,2031.23
358.851,2017.30
359.864,1993.77
360.878,2013.53
361.892,2005.57
362.906,2016.60
363.920,2082.13
364.932,2058.60
365.945,2026.90
366.959,2091.90
367.972,2121.00
368.986,2077.10
369.999,2105.60
371.010,2175.97
372.023,2137.07
373.036,2158.27
374.049,2159.93
375.061,2171.10
376.072,2222.37
377.084,2228.87
378.097,2216.50
379.109,2211.50
380.121,2235.50
381.133,2249.47
382.143,2303.40
383.155,2273.07
384.166,2289.77
385.178,2284.23
386.189,2285.87
387.201,2310.87
388.212,2309.50
389.221,2318.27
390.232,2333.47
391.243,2295.40
392.254,2257.43
393.264,2240.67
394.275,2258.17
395.283,2257.57
396.294,2241.50
397.304,2222.37
398.314,2200.10
399.324,2196.57
400.334,2219.20
401.344,2106.87
402.351,2089.23
403.361,2098.90
404.370,2096.30
405.380,2086.27
406.389,2039.37
407.398,2020.63
408.407,2011.13
409.414,2010.00
410.423,1964.93
411.431,1959.33
412.440,1926.07
413.448,1924.37
414.457,1867.13
415.465,1901.47
416.471,1877.37
417.479,1843.43
418.487,1856.47
419.495,1837.20
420.503,1794.53
421.510,1811.83
422.518,1768.70
423.525,1800.77
424.530,1748.13
425.537,1821.37
426.544,1740.37
427.551,1759.57
428.558,1743.93
429.565,1749.80
430.571,1717.77
431.578,1702.43
432.582,1754.70
433.588,1684.77
434.595,1737.37
435.601,1734.17
436.607,1657.37
437.612,1652.70
438.618,1706.27
439.624,1680.77
440.627,1705.97
441.633,1667.50
442.638,1648.27
443.643,1717.17
444.648,1712.43
445.653,1689.67
446.658,1677.47
447.663,1714.27
448.667,1699.77
449.672,1699.40
450.674,1689.57
451.678,1715.13
452.682,1712.17
453.687,1709.83
454.690,1736.67
455.694,1712.73
456.698,1708.87
457.702,1701.23
458.705,1691.83
459.709,1650.10
460.710,1748.00
461.713,1748.53
462.716,1693.47
463.719,1694.73
464.722,1737.83
465.725,1771.10
466.727,1768.97
467.730,1767.30
468.732,1731.27
469.735,1761.73
470.737,1780.03
471.737,1734.60
472.739,1763.13
473.741,1723.80
474.742,1805.20
475.744,1812.03
476.746,1766.20
477.747,1787.90
478.748,1790.93
479.750,1758.80
480.751,1784.10
481.752,1808.20
482.753,1758.90
483.751,1799.47
484.752,1775.37
485.753,1756.10
486.753,1770.07
487.753,1814.90
488.754,1763.83
489.754,1756.03
490.754,1762.40
491.754,1752.87
492.754,1814.13
493.753,1765.87
494.753,1764.13
495.752,1730.17
496.752,1776.67
497.749,1747.07
498.748,1789.70
499.747,1736.80
500.746,1717.23
501.745,1759.90
502.744,1744.57
503.742,1721.97
504.741,1734.63
505.739,1694.40
506.737,1732.70
507.735,1717.13
508.734,1736.73
509.732,1724.27
510.729,1719.10
511.727,1705.00
512.725,1692.50
513.720,1701.47
514.718,1740.57
515.715,1692.17
516.712,1633.80
517.709,1690.50
518.706,1710.30
519.703,1700.07
520.700,1645.07
521.696,1664.83
522.693,1679.87
523.689,1702.70
524.686,1674.43
525.682,1653.10
526.678,1694.33
527.674,1657.60
528.670,1701.73
529.666,1707.30
530.661,1659.53
531.657,2171.50
532.652,1672.90
533.648,1684.40
534.641,1725.77
535.636,1667.20
536.631,1702.93
537.626,1689.93
538.621,1654.53
539.616,1674.83
540.610,1703.70
541.605,1699.33
542.599,1725.33
543.593,1676.47
544.587,1729.93
545.581,1716.40
546.575,1713.57
547.569,1754.73
548.563,1745.43
549.557,1741.47
550.550,1750.37
551.543,1673.17
552.537,1770.73
553.530,1723.30
554.523,1748.20
555.516,1756.00
556.509,1747.60
557.502,1746.43
558.494,1747.87
559.487,1735.37
560.479,1787.57
561.472,1735.80
562.464,1775.83
563.456,1782.70
564.448,1764.50
565.440,1788.13
566.432,1782.97
567.423,1835.70
568.415,1827.07
569.404,1856.83
570.396,1823.30
571.387,1853.90
572.378,1867.43
573.369,1829.00
574.360,1885.57
575.351,1878.73
576.341,1901.63
577.332,1879.97
578.323,1892.57
579.313,1867.97
580.303,1878.97
581.293,1860.10
582.283,1837.00
583.273,1883.77
584.263,1870.80
585.253,1900.63
586.243,1929.23
587.232,1903.77
588.222,1878.47
589.211,1875.73
590.200,1915.50
591.189,1892.63
592.178,1887.50
593.167,1824.37
594.156,1824.73
595.145,1874.47
596.133,1849.53
597.122,1865.43
598.110,1802.20
599.098,1813.70
600.086,1773.30
601.074,1766.23
602.062,1795.67
603.050,1814.47
604.038,1813.27
605.025,1760.90
606.013,1752.30
607.000,1721.60
607.987,1768.27
608.975,1710.17
609.962,1733.70
610.949,1737.50
611.936,1677.47
612.922,1692.43
613.909,1668.63
614.895,1704.90
615.882,1633.93
616.868,1664.33
617.854,1645.27
618.841,1629.80
619.826,1617.07
620.812,1645.73
621.798,1629.90
622.784,1589.27
623.769,1597.30
624.755,1560.93
625.740,1599.63
626.725,1596.43
627.711,1628.53
628.698,1584.30
629.683,1534.67
630.667,1536.03
631.652,1539.43
632.637,1500.73
633.621,1559.93
634.606,1492.20
635.590,1554.30
636.574,1501.87
637.558,1510.17
638.542,1525.73
639.526,1487.57
640.510,1479.70
641.493,1477.40
642.477,1495.03
643.460,1475.23
644.444,1474.00
645.427,1484.50
646.410,1503.80
647.393,1423.87
648.376,1446.40
649.359,1434.60
650.341,1391.23
651.324,1391.17
652.307,1418.93
653.289,1416.13
654.271,1454.70
655.253,1394.77
656.235,1398.50
657.217,1375.03
658.199,1356.30
659.181,1376.37
660.163,1384.20
661.144,1379.43
662.126,1357.73
663.107,1392.13
664.088,1360.20
665.069,1373.23
666.050,1355.40
667.033,1351.77
668.014,1381.40
668.995,1387.73
669.975,1312.47
670.956,1332.00
671.936,1345.07
672.916,1375.67
673.896,1246.93
674.876,1373.90
675.856,1304.17
676.836,1310.20
677.816,1300.57
678.795,1275.73
679.775,1289.83
680.754,1268.87
681.734,1246.17
682.713,1256.00
683.692,1249.77
684.671,1285.83
685.650,1252.57
686.629,1238.90
687.607,1281.17
688.586,1249.37
689.564,1247.07
690.543,1288.03
691.523,1222.40
692.501,1271.60
693.479,1229.90
694.457,1238.13
695.435,1245.87
696.413,1220.30
697.390,1228.73
698.368,1215.67
699.345,1199.73
700.322,1195.37
701.300,1228.80
702.277,1172.63
703.254,1177.83
704.231,1196.03
705.207,1181.97
706.184,1181.60
707.161,1190.70
708.137,1194.67
709.113,1177.37
710.090,1166.13
711.068,1226.63
712.044,1160.73
713.020,1188.43
713.996,1147.30
714.971,1195.10
715.947,1200.23
716.922,1159.43
717.898,1168.80
718.873,1134.70
719.848,1186.03
720.823,1135.63
721.798,1189.10
722.773,1162.23
723.748,1163.30
724.723,1134.53
725.697,1138.23
726.672,1182.87
727.646,1133.83
728.622,1139.67
729.596,1122.03
730.570,1127.90
731.544,1167.10
732.518,1145.30
733.492,1120.87
734.466,1138.30
735.439,1080.73
736.413,1102.13
737.386,1108.93
738.359,1131.37
739.332,1104.10
740.305,1128.70
741.278,1113.87
742.251,1148.50
743.224,1135.33
744.196,1124.97
745.171,1097.80
746.143,1084.30
747.115,1085.53
748.087,1093.37
749.059,1132.10
750.031,1118.23
751.003,1066.90
751.975,1102.27
752.947,1115.50
753.918,1112.73
754.890,1093.90
755.861,1067.67
756.832,1115.57
757.803,1110.17
758.774,1111.23
759.747,1076.37
760.718,1101.23
761.689,1060.83
762.659,1079.13
763.630,1076.13
764.600,1070.20
765.570,1070.40
766.540,1090.03
767.510,1086.00
768.480,1086.37
769.450,1081.57
770.420,1063.10
771.390,1119.97
772.359,1038.73
773.329,1091.33
774.300,1075.93
775.269,1076.70
776.238,1061.40
777.207,1082.10
778.176,1041.70
779.145,1069.37
780.114,1043.03
781.083,1065.33
782.051,1046.20
783.019,1079.47
783.988,1060.30
784.956,1070.03
785.924,1051.10
786.894,1009.63
787.862,1028.83
788.830,1074.70
789.797,1035.57
790.765,1055.67
791.732,997.90
792.700,1045.80
793.667,1050.37
794.634,997.47
795.601,1051.83
796.568,1032.43
797.535,1017.27
798.502,994.17
799.468,1016.73
800.437,1042.13
801.403,1023.07
802.370,1008.70
803.336,1002.30
804.302,1013.37
805.268,1018.30
806.234,1016.77
807.200,990.77
808.166,989.00
809.131,1003.80
810.097,1009.07
811.062,971.10
812.027,1023.63
812.994,994.90
813.960,1018.40
814.925,1003.23
815.889,1024.67
816.854,1023.07
817.819,996.13
818.783,979.47
819.748,1019.03
820.712,978.30
821.677,1000.47
822.641,1010.87
823.605,976.97
824.571,969.40
825.534,974.93
826.498,974.13
827.462,1004.83
828.425,951.77
829.389,951.50
830.352,990.93
831.315,987.13
832.279,972.30
833.242,968.93
834.204,985.40
835.167,969.07
836.132,1001.23
837.095,971.57
838.057,963.00
839.020,998.13
839.982,957.97
840.944,930.33
841.906,962.80
842.868,951.43
843.830,900.77
844.792,1003.30
845.753,975.63
846.715,948.57
847.679,969.27
848.640,955.43
849.601,956.37
850.562,899.93
851.523,946.40
852.484,952.40
853.445,963.10
854.406,974.13
855.367,922.87
856.327,927.33
857.288,958.73
858.248,951.67
859.210,937.07
860.170,941.30
861.130,978.77
862.090,959.07
863.050,944.30
864.010,937.07
864.969,942.00
865.929,935.63
866.888,947.57
867.848,976.77
868.807,964.87
869.766,935.33
870.727,925.47
871.686,935.60
872.645,963.10
873.604,937.43
874.562,931.47
875.521,913.37
876.479,970.83
877.437,949.17
878.396,961.63
879.354,944.17
880.312,909.63
881.270,935.70
882.229,931.43
883.187,927.23
884.145,908.07
885.102,940.20
886.059,954.23
887.017,917.77
887.974,896.67
888.931,914.63
889.888,911.07
890.845,909.30
891.802,905.60
892.758,895.87
893.717,947.70
894.673,934.07
895.630,941.00
896.586,941.93
897.542,914.70
898.498,904.40
899.454,911.37
900.410,898.20
901.366,926.10
902.321,922.87
903.277,943.50
904.232,916.13
905.189,902.17
906.145,887.93
907.100,919.37
908.055,890.97
909.010,914.40
909.965,899.67
910.919,899.67
911.874,916.93
912.828,948.90
913.783,916.93
914.737,884.37
915.693,883.10
916.648,921.40
917.602,912.53
918.555,917.70
919.509,912.33
920.463,921.80
921.417,898.13
922.370,887.80
923.324,901.63
924.277,870.60
925.230,896.43
926.183,897.57
927.138,940.50
928.091,876.90
929.044,923.80
929.996,889.97
930.949,884.53
931.902,906.03
932.854,889.17
933.806,903.60
934.758,909.90
935.711,903.10
936.663,882.03
937.614,902.37
938.568,910.20
939.520,893.13
940.471,882.97
941.423,891.40
942.374,918.70
943.326,897.90
944.277,895.53
945.228,911.77
946.179,863.23
947.130,891.77
948.080,892.50
949.031,906.33
949.984,898.87
950.934,891.73
951.884,892.77
952.835,877.13
953.785,894.43
954.735,874.17
955.685,908.57
956.635,887.73
957.585,876.10
958.534,891.40
959.484,904.57
960.433,878.93
961.383,892.63
962.334,889.77
963.283,905.00
964.232,876.07
965.181,854.37
966.130,854.70
967.079,854.63
968.027,875.63
968.976,905.00
969.924,904.07
970.873,881.60
971.821,868.30
972.769,899.07
973.719,892.87
974.667,895.70
975.615,903.57
976.562,910.13
977.510,869.53
978.458,879.67
979.405,925.17
980.352,893.20
981.300,870.30
982.247,888.50
983.194,924.10
984.141,912.50
985.088,884.67
986.036,912.40
986.983,860.10
987.930,880.60
988.876,878.83
989.822,892.53
990.769,900.30
991.715,888.27
992.661,894.80
993.607,934.50
994.553,887.67
995.498,916.90
996.444,891.50
997.389,919.80
998.337,934.80
999.282,906.80
1000.227,899.73
1001.173,910.20
1002.118,928.27
1003.062,878.03
1004.007,900.73
1004.952,947.03
1005.897,919.87
1006.841,888.37
1007.786,887.67
1008.730,897.67
1009.674,932.70
1010.618,896.43
1011.564,918.27
1012.508,908.07
1013.452,884.17
1014.396,943.30
1015.339,922.40
1016.283,907.77
1017.226,907.07
1018.170,907.87
1019.113,894.47
1020.056,909.90
1020.999,905.20
1021.942,934.13
1022.885,879.90
1023.828,909.60
1024.770,912.60
1025.715,920.77
1026.657,875.50
1027.600,910.13
1028.542,912.73
1029.484,970.30
1030.426,874.03
1031.368,924.67
1032.310,900.37
1033.251,910.67
1034.193,925.37
1035.135,903.77
1036.076,913.40
1037.017,898.80
1037.959,896.07
1038.900,896.80
1039.843,898.30
1040.784,905.67
1041.725,940.20
1042.665,936.37
1043.606,912.63
1044.547,934.40
1045.487,937.23
1046.427,938.33
1047.368,912.60
1048.308,932.57
1049.248,920.90
1050.188,915.50
1051.128,964.57
1052.067,920.17
1053.007,903.53
1053.947,911.13
1054.886,927.90
1055.827,930.83
1056.766,917.53
1057.706,932.67
1058.645,944.20
1059.584,899.20
1060.522,973.80
1061.461,923.87
1062.400,912.13
1063.338,955.43
1064.277,915.87
1065.215,922.93
1066.154,950.00
1067.092,946.57
1068.030,952.13
1068.968,923.57
1069.906,941.37
1070.843,959.80
1071.781,929.27
1072.720,948.80
1073.658,955.70
1074.595,952.70
1075.533,967.70
1076.470,954.50
1077.407,925.10
1078.344,938.13
1079.281,969.60
1080.217,955.17
1081.154,962.33
1082.091,984.80
1083.027,915.50
1083.964,945.47
1084.900,997.40
1085.836,965.70
1086.772,929.90
1087.708,890.73
1088.644,986.03
1089.580,946.97
1090.515,929.77
1091.451,983.17
1092.388,985.60
1093.324,943.87
1094.259,929.90
1095.194,942.27
1096.129,922.07
1097.064,946.93
1097.999,906.50
1098.934,961.70
1099.869,925.03
1100.803,949.60
1101.738,946.50
1102.672,968.97
1103.607,960.03
1104.541,950.50
1105.475,941.77
1106.409,931.53
1107.343,916.17
1108.277,924.43
1109.210,937.90
1110.144,931.13
1111.078,932.63
1112.011,955.60
1112.944,970.63
1113.878,953.33
1114.811,958.97
1115.744,945.30
1116.678,940.53
1117.611,1006.53
1118.544,947.70
1119.477,940.47
1120.409,938.87
1121.342,918.13
1122.274,954.10
1123.206,884.03
1124.138,909.07
1125.070,943.87
1126.002,934.33
1126.934,905.23
1127.866,918.30
1128.798,913.77
1129.729,908.83
1130.661,940.80
1131.592,947.80
1132.523,914.07
1133.454,913.80
1134.385,909.97
1135.317,925.67
1136.247,978.77
1137.178,954.77
1138.109,924.10
1139.039,938.53
1139.970,912.37
1140.900,909.43
1141.831,922.57
1142.761,926.63
1143.691,927.03
1144.621,881.77
1145.551,894.27
1146.480,940.73
1147.410,942.50
1148.340,909.47
1149.269,915.13
1150.199,921.67
1151.128,958.03
1152.057,928.77
1152.979,941.70
1153.898,947.77
1154.819,937.57
1155.739,915.03
1156.658,930.03
1157.579,933.73
1158.498,929.90
1159.419,916.47
1160.338,897.83
1161.256,934.47
1162.177,932.93
1163.095,947.20
1164.016,897.90
1164.934,924.57
1165.852,876.43
1166.772,920.47
1167.690,942.47
1168.610,916.77
1169.528,922.33
1170.446,927.43
1171.365,941.57
1172.283,926.40
1173.202,966.23
1174.120,912.00
1175.037,937.50
1175.956,923.87
1176.873,938.57
1177.792,976.53
1178.709,961.30
1179.626,949.13
1180.544,933.07
1181.461,939.60
1182.379,934.73
1183.296,973.10
1184.212,940.93
1185.130,959.47
1186.046,947.57
1186.962,937.70
1187.880,929.50
1188.796,948.60
1189.714,915.50
1190.629,953.17
1191.545,955.90
1192.462,937.10
1193.378,971.27
1194.295,928.27
1195.210,958.90
1196.125,947.37
1197.042,981.47
1197.957,975.07
1198.872,991.23
1199.788,963.70
1200.703,962.80
1201.619,941.93
1202.534,956.70
1203.448,954.07
1204.364,1011.27
1205.278,985.17
1206.192,970.50
1207.108,1004.93
1208.022,992.03
1208.938,986.40
1209.851,981.17
1210.765,955.40
1211.680,983.93
1212.594,1007.93
1213.507,998.83
1214.422,1008.03
1215.335,993.37
1216.248,1002.90
1217.163,1003.97
1218.076,982.73
1218.990,1019.80
1219.903,1008.50
1220.816,1020.73
1221.730,1030.83
1222.642,1043.33
1223.554,1034.07
1224.469,1035.83
1225.380,1010.43
1226.292,1031.33
1227.206,1004.83
1228.118,998.73
1229.032,1039.30
1229.943,1002.83
1230.855,1032.57
1231.768,1040.17
1232.679,994.53
1233.590,1039.10
1234.503,1056.10
1235.414,1049.07
1236.325,1039.60
1237.238,1058.80
1238.149,1068.57
1239.059,1044.17
1239.972,1078.23
1240.882,1036.83
1241.793,1054.97
1242.705,1065.73
1243.615,1068.70
1244.525,1077.13
1245.437,1072.73
1246.347,1063.03
1247.259,1097.97
1248.168,1100.23
1249.078,1071.10
1249.989,1062.67
1250.899,1084.57
1251.808,1072.53
1252.719,1117.63
1253.628,1111.13
1254.537,1117.30
1255.448,1047.23
1256.357,1072.50
1257.266,1080.27
1258.176,1064.17
1259.085,1064.57
1259.993,1113.33
1260.904,1065.93
1261.812,1102.40
1262.720,1097.03
1263.630,1068.50
1264.538,1098.10
1265.446,1095.83
1266.356,1085.20
1267.263,1087.77
1268.171,1095.17
1269.080,1077.37
1269.988,1071.40
1270.895,1069.40
1271.804,1083.80
1272.711,1058.53
1273.619,1068.37
1274.527,1089.07
1275.434,1096.97
1276.341,1092.17
1277.248,1072.17
1278.156,1068.00
1279.063,1111.87
1279.969,1084.97
1280.877,1096.23
1281.783,1095.30
1282.690,1077.70
1283.598,1083.23
1284.503,1078.43
1285.409,1069.00
1286.317,1084.67
1287.223,1074.80
1288.128,1071.10
1289.036,1047.53
1289.941,1069.57
1290.846,1073.60
1291.751,1086.23
1292.658,1047.03
1293.563,1093.60
1294.468,1070.30
1295.375,1085.17
1296.280,1062.63
1297.184,1041.90
1298.091,1053.00
1298.995,1032.13
1299.900,1065.67
1300.806,1029.73
1301.710,1045.93
1302.614,1039.30
1303.518,1013.17
1304.424,1038.63
1305.327,1029.40
1306.231,1004.93
1307.137,1023.07
1308.040,1030.80
1308.943,1000.60
1309.847,1007.60
1310.752,978.23
1311.655,1011.87
1312.558,981.50
1313.463,990.83
1314.366,1026.50
1315.269,936.33
1316.171,962.83
1317.076,965.53
1317.978,944.10
1318.881,948.40
1319.785,930.70
1320.687,934.83
1321.589,960.47
1322.491,934.17
1323.395,933.43
1324.297,978.20
1325.198,936.47
1326.102,966.33
1327.004,907.23
1327.905,958.27
1328.806,912.07
1329.709,933.83
1330.611,918.87
1331.512,949.13
1332.413,898.77
1333.316,904.77
1334.216,951.60
1335.117,900.87
1336.020,889.87
1336.920,890.83
1337.821,868.47
1338.721,877.43
1339.623,886.03
1340.523,863.57
1341.423,879.03
1342.323,896.47
1343.225,863.73
1344.125,850.63
1345.025,847.90
1345.924,821.03
1346.826,831.43
