RamanScope Measure Spectrum Data V3.72

<< MEASURE CONDITION >>
Exposure Type,Aver
Exposure Time [sec],15
Exposure Count,4
Measure Time,2023/07/15 15:43:02
Data Name,""
Data Comment,""
Rayleigh Wave[nm],532.0

<< SAMPLE SPECTRUM >>
Wave[dcm-1],No150
146.591,888.75
147.626,990.75
148.664,1194.00
149.699,1368.50
150.737,1587.75
151.772,1733.25
152.809,1908.25
153.846,2025.50
154.881,2128.75
155.918,2253.25
156.953,2353.00
157.989,2460.00
159.026,2533.75
160.060,2578.75
161.096,2649.50
162.130,2688.50
163.167,2711.75
164.200,2754.75
165.236,2777.00
166.272,2876.75
167.305,2883.25
168.341,2934.25
169.374,3003.50
170.409,3075.25
171.445,3117.25
172.477,3202.75
173.512,3265.50
174.545,3257.25
175.580,3298.25
176.614,3246.25
177.647,3298.00
178.681,3303.50
179.713,3235.75
180.747,3216.25
181.781,3186.75
182.813,3164.75
183.847,3207.25
184.878,3183.50
185.912,3108.00
186.945,3168.25
187.976,3222.00
189.010,3153.75
190.043,3253.50
191.073,3275.00
192.106,3231.50
193.137,3296.75
194.170,3407.75
195.202,3388.00
196.232,3443.50
197.265,3468.50
198.297,3513.75
199.327,3591.00
200.359,3676.25
201.388,3712.50
202.420,3789.25
203.452,3875.75
204.481,3957.00
205.512,4028.50
206.544,4134.00
207.573,4212.25
208.604,4300.25
209.635,4428.75
210.663,4561.25
211.694,4678.25
212.725,4764.50
213.753,4927.75
214.783,4924.00
215.813,4985.00
216.841,5035.25
217.871,5107.50
218.899,5018.75
219.929,5000.50
220.959,4917.50
221.986,4832.75
223.016,4713.00
224.045,4622.25
225.072,4549.25
226.101,4477.25
227.130,4312.25
228.157,4304.50
229.185,4253.00
230.214,4149.75
231.241,4028.00
232.269,4042.00
233.297,4021.00
234.323,4006.25
235.351,4000.25
236.379,3965.75
237.407,3983.00
238.433,3985.75
239.460,3946.00
240.488,4082.00
241.513,4032.25
242.540,4104.25
243.568,4112.50
244.592,4208.50
245.619,4234.25
246.646,4168.00
247.671,4124.75
248.697,4113.25
249.724,4103.75
250.748,4133.00
251.774,4066.50
252.801,4091.00
253.827,4125.00
254.850,4112.00
255.876,4148.25
256.902,4150.50
257.925,4151.50
258.951,4206.75
259.976,4219.25
260.999,4297.25
262.024,4311.50
263.049,4374.25
264.074,4409.00
265.097,4446.00
266.122,4443.25
267.146,4570.25
268.168,4585.75
269.193,4602.25
270.217,4640.75
271.241,4663.50
272.263,4701.25
273.287,4738.00
274.311,4784.75
275.332,4802.00
276.356,4765.50
277.379,4742.75
278.402,4771.50
279.424,4775.00
280.447,4738.75
281.470,4618.75
282.492,4620.50
283.513,4563.75
284.536,4514.50
285.558,4436.25
286.581,4337.50
287.601,4263.50
288.623,4299.50
289.645,4225.50
290.665,4135.00
291.687,4043.25
292.709,3984.75
293.730,3931.25
294.750,3966.00
295.771,3886.00
296.792,3831.75
297.813,3868.25
298.832,3758.00
299.853,3677.50
300.874,3666.75
301.895,3617.00
302.913,3519.25
303.934,3494.25
304.954,3460.00
305.975,3481.50
306.993,3422.00
308.013,3374.50
309.033,3379.25
310.052,3286.50
311.072,3336.75
312.090,3328.75
313.109,3236.50
314.129,3236.75
315.148,3203.75
316.165,3287.50
317.184,3197.00
318.203,3212.50
319.222,3156.75
320.238,3168.00
321.257,3158.50
322.275,3124.00
323.294,3134.75
324.312,3103.00
325.328,3066.50
326.346,3060.50
327.364,3080.50
328.382,3050.75
329.397,3069.75
330.415,3006.50
331.432,3025.25
332.450,3063.25
333.467,3017.00
334.482,2972.00
335.499,3019.25
336.516,2983.25
337.533,3025.75
338.547,3032.75
339.564,2999.50
340.580,3021.00
341.597,2989.25
342.613,2970.00
343.627,3001.50
344.643,2908.50
345.659,2990.50
346.675,2951.00
347.690,2989.50
348.704,2940.75
349.719,2910.50
350.735,2948.50
351.750,2996.25
352.765,2964.00
353.778,2971.75
354.793,2939.00
355.808,2969.50
356.822,2952.00
357.837,2922.75
358.851,2971.50
359.864,3030.00
360.878,2972.50
361.892,2982.75
362.906,2959.25
363.920,2990.75
364.932,2972.25
365.945,2969.25
366.959,2975.00
367.972,2997.75
368.986,3022.25
369.999,2991.50
371.010,3047.75
372.023,3009.25
373.036,3005.00
374.049,3039.00
375.061,3086.25
376.072,3084.00
377.084,3114.75
378.097,3113.25
379.109,3072.75
380.121,3126.25
381.133,3065.75
382.143,3150.75
383.155,3093.00
384.166,3081.25
385.178,3046.25
386.189,3071.00
387.201,3158.00
388.212,3104.50
389.221,3049.25
390.232,3042.25
391.243,3034.25
392.254,3030.25
393.264,3061.00
394.275,2972.00
395.283,3042.25
396.294,2997.25
397.304,2933.25
398.314,2959.25
399.324,2936.25
400.334,2958.00
401.344,2944.25
402.351,2915.00
403.361,2918.25
404.370,2947.00
405.380,2975.75
406.389,2876.00
407.398,2846.75
408.407,2848.75
409.414,2590.75
410.423,2853.00
411.431,2835.75
412.440,2780.25
413.448,2788.50
414.457,2779.00
415.465,2709.50
416.471,2735.75
417.479,2765.25
418.487,2746.50
419.495,2727.75
420.503,2805.50
421.510,2762.75
422.518,2736.50
423.525,2736.75
424.530,2749.50
425.537,2745.50
426.544,2648.00
427.551,2733.50
428.558,2718.75
429.565,2720.50
430.571,2690.75
431.578,2686.75
432.582,2667.25
433.588,2671.00
434.595,2689.50
435.601,2725.25
436.607,2689.75
437.612,2690.75
438.618,2694.75
439.624,2663.75
440.627,2706.75
441.633,2679.00
442.638,2701.50
443.643,2686.25
444.648,2657.25
445.653,2647.00
446.658,2712.00
447.663,2705.75
448.667,2654.75
449.672,2679.50
450.674,2770.25
451.678,2708.75
452.682,2713.00
453.687,2681.00
454.690,2671.25
455.694,2695.75
456.698,2686.75
457.702,2686.00
458.705,2685.25
459.709,2674.25
460.710,2706.25
461.713,2720.00
462.716,2699.00
463.719,2673.50
464.722,2702.75
465.725,2710.25
466.727,2758.50
467.730,2795.25
468.732,2752.50
469.735,2697.25
470.737,2728.25
471.737,2759.50
472.739,2776.00
473.741,2753.00
474.742,2762.00
475.744,2676.75
476.746,2730.25
477.747,2755.50
478.748,2764.25
479.750,2780.50
480.751,2696.75
481.752,2711.00
482.753,2732.50
483.751,2714.50
484.752,2732.25
485.753,2718.75
486.753,2694.50
487.753,2714.75
488.754,2696.25
489.754,2637.25
490.754,2714.00
491.754,2744.25
492.754,2738.00
493.753,2696.00
494.753,2729.00
495.752,2665.75
496.752,2688.00
497.749,2728.00
498.748,2721.25
499.747,2667.50
500.746,2674.25
501.745,2632.00
502.744,2660.00
503.742,2682.00
504.741,2596.50
505.739,2640.25
506.737,2582.50
507.735,2610.00
508.734,2633.75
509.732,2571.25
510.729,2662.75
511.727,2533.75
512.725,2628.50
513.720,2584.50
514.718,2569.00
515.715,2557.00
516.712,2586.75
517.709,2541.50
518.706,2547.00
519.703,2569.75
520.700,2535.25
521.696,2530.00
522.693,2589.25
523.689,2553.50
524.686,2556.00
525.682,2576.00
526.678,2553.50
527.674,2598.00
528.670,2589.00
529.666,2593.50
530.661,2569.75
531.657,2586.50
532.652,2549.50
533.648,2596.50
534.641,2632.25
535.636,2552.75
536.631,2580.25
537.626,2680.75
538.621,2578.25
539.616,2612.75
540.610,2582.75
541.605,2610.50
542.599,2612.25
543.593,2607.75
544.587,2595.25
545.581,2614.50
546.575,2576.75
547.569,2614.50
548.563,2591.00
549.557,2651.75
550.550,2591.50
551.543,2541.50
552.537,2586.25
553.530,2566.50
554.523,2635.00
555.516,2561.50
556.509,2582.50
557.502,2584.50
558.494,2614.00
559.487,2587.25
560.479,2569.75
561.472,2587.75
562.464,2596.50
563.456,2610.00
564.448,2662.00
565.440,2662.75
566.432,2613.50
567.423,2638.75
568.415,2666.50
569.404,2662.25
570.396,2632.75
571.387,2655.75
572.378,2644.25
573.369,2669.25
574.360,2647.00
575.351,2699.25
576.341,2726.25
577.332,2709.75
578.323,2681.25
579.313,2662.25
580.303,2734.75
581.293,2727.75
582.283,2702.25
583.273,2742.25
584.263,2707.00
585.253,2689.00
586.243,2739.00
587.232,2677.00
588.222,2669.00
589.211,2726.00
590.200,2757.25
591.189,2797.50
592.178,2696.25
593.167,2729.75
594.156,2756.25
595.145,2713.50
596.133,2760.50
597.122,2714.00
598.110,2728.75
599.098,2740.50
600.086,2698.25
601.074,2767.00
602.062,2646.75
603.050,2685.50
604.038,2687.75
605.025,2650.00
606.013,2650.75
607.000,2707.50
607.987,2684.25
608.975,2613.25
609.962,2635.50
610.949,2653.75
611.936,2642.75
612.922,2558.50
613.909,2581.25
614.895,2607.50
615.882,2580.00
616.868,2567.00
617.854,2572.75
618.841,2543.25
619.826,2520.50
620.812,2529.75
621.798,2516.25
622.784,2515.75
623.769,2477.75
624.755,2490.50
625.740,2401.25
626.725,2427.00
627.711,2381.00
628.698,2459.50
629.683,2406.50
630.667,2340.25
631.652,2388.00
632.637,2362.75
633.621,2330.50
634.606,2279.50
635.590,2309.00
636.574,2272.75
637.558,2276.00
638.542,2273.25
639.526,2257.25
640.510,2245.00
641.493,2258.25
642.477,2234.50
643.460,2225.25
644.444,2226.75
645.427,2147.75
646.410,2208.00
647.393,2208.50
648.376,2246.00
649.359,2196.50
650.341,2145.25
651.324,2199.00
652.307,2136.50
653.289,2140.75
654.271,2152.50
655.253,2118.75
656.235,2101.75
657.217,2169.25
658.199,2083.25
659.181,2114.25
660.163,2131.75
661.144,2143.00
662.126,2044.75
663.107,2140.00
664.088,2032.25
665.069,2056.75
666.050,2056.25
667.033,2085.75
668.014,2084.50
668.995,2064.00
669.975,2051.00
670.956,2033.00
671.936,2068.00
672.916,2013.50
673.896,1983.50
674.876,2005.25
675.856,1934.50
676.836,1925.50
677.816,1973.50
678.795,1937.50
679.775,1933.75
680.754,1950.25
681.734,1938.75
682.713,1877.50
683.692,1876.00
684.671,1940.50
685.650,1894.50
686.629,1886.75
687.607,1855.50
688.586,1864.25
689.564,1868.00
690.543,1814.25
691.523,1815.00
692.501,1849.50
693.479,1859.25
694.457,1797.50
695.435,1794.00
696.413,1771.75
697.390,1781.00
698.368,1804.00
699.345,1812.50
700.322,1760.50
701.300,1768.50
702.277,1739.50
703.254,1741.50
704.231,1749.75
705.207,1760.75
706.184,1752.75
707.161,1714.25
708.137,1740.75
709.113,1724.75
710.090,1779.25
711.068,1735.00
712.044,1695.75
713.020,1686.00
713.996,1731.00
714.971,1700.00
715.947,1721.50
716.922,1622.50
717.898,1648.25
718.873,1673.00
719.848,1682.50
720.823,1656.50
721.798,1689.00
722.773,1640.00
723.748,1666.50
724.723,1643.50
725.697,1606.50
726.672,1632.50
727.646,1595.50
728.622,1635.75
729.596,1600.25
730.570,1614.25
731.544,1642.50
732.518,1648.50
733.492,1646.00
734.466,1611.75
735.439,1607.50
736.413,1624.75
737.386,1571.25
738.359,1614.50
739.332,1609.75
740.305,1570.25
741.278,1557.00
742.251,1564.50
743.224,1595.75
744.196,1545.00
745.171,1553.00
746.143,1597.25
747.115,1567.00
748.087,1532.00
749.059,1538.25
750.031,1507.50
751.003,1557.50
751.975,1559.25
752.947,1522.25
753.918,1522.25
754.890,1497.50
755.861,1526.25
756.832,1524.75
757.803,1475.00
758.774,1477.00
759.747,1491.25
760.718,1506.25
761.689,1472.25
762.659,1486.75
763.630,1434.50
764.600,1467.00
765.570,1478.75
766.540,1454.00
767.510,1491.75
768.480,1493.75
769.450,1480.50
770.420,1412.00
771.390,1435.25
772.359,1444.50
773.329,1486.25
774.300,1429.25
775.269,1439.00
776.238,1414.00
777.207,1428.50
778.176,1435.25
779.145,1423.50
780.114,1415.75
781.083,1381.50
782.051,1404.50
783.019,1411.25
783.988,1404.75
784.956,1373.75
785.924,1361.50
786.894,1415.00
787.862,1413.75
788.830,1402.50
789.797,1342.75
790.765,1351.25
791.732,1363.75
792.700,1334.00
793.667,1367.75
794.634,1353.25
795.601,1383.25
796.568,1330.75
797.535,1337.50
798.502,1334.50
799.468,1380.75
800.437,1336.00
801.403,1366.00
802.370,1299.00
803.336,1303.50
804.302,1339.25
805.268,1305.50
806.234,1306.00
807.200,1298.00
808.166,1299.75
809.131,1347.25
810.097,1303.50
811.062,1302.75
812.027,1322.50
812.994,1283.00
813.960,1311.50
814.925,1295.75
815.889,1294.75
816.854,1302.50
817.819,1284.50
818.783,1301.00
819.748,1268.25
820.712,1280.75
821.677,1295.50
822.641,1236.25
823.605,1289.50
824.571,1300.00
825.534,1292.75
826.498,1256.50
827.462,1275.00
828.425,1257.50
829.389,1283.50
830.352,1269.00
831.315,1240.50
832.279,1289.25
833.242,1220.75
834.204,1266.50
835.167,1241.50
836.132,1288.25
837.095,1249.00
838.057,1249.00
839.020,1252.50
839.982,1252.25
840.944,1261.00
841.906,1241.50
842.868,1245.75
843.830,1184.75
844.792,1219.75
845.753,1261.25
846.715,1236.50
847.679,1237.25
848.640,1257.25
849.601,1233.75
850.562,1184.25
851.523,1267.25
852.484,1217.75
853.445,1249.25
854.406,1223.75
855.367,1191.75
856.327,1238.00
857.288,1228.50
858.248,1186.25
859.210,1212.00
860.170,1197.25
861.130,1193.75
862.090,1213.50
863.050,1229.75
864.010,1232.50
864.969,1182.00
865.929,1184.75
866.888,1220.25
867.848,1191.75
868.807,1198.00
869.766,1209.00
870.727,1147.75
871.686,1167.25
872.645,1181.25
873.604,1178.50
874.562,1149.50
875.521,1167.00
876.479,1220.25
877.437,1189.75
878.396,1201.75
879.354,1227.50
880.312,1162.75
881.270,1197.75
882.229,1199.25
883.187,1219.25
884.145,1214.00
885.102,1212.00
886.059,1219.75
887.017,1190.25
887.974,1247.00
888.931,1192.25
889.888,1239.50
890.845,1168.75
891.802,1197.00
892.758,1201.50
893.717,1213.75
894.673,1210.25
895.630,1214.25
896.586,1231.50
897.542,1212.25
898.498,1190.75
899.454,1197.50
900.410,1226.00
901.366,1207.00
902.321,1189.25
903.277,1214.00
904.232,1231.75
905.189,1237.00
906.145,1219.25
907.100,1259.00
908.055,1204.00
909.010,1219.75
909.965,1188.75
910.919,1237.25
911.874,1209.75
912.828,1245.50
913.783,1207.75
914.737,1250.00
915.693,1272.00
916.648,1236.25
917.602,1220.75
918.555,1264.25
919.509,1180.50
920.463,1174.75
921.417,1214.00
922.370,1205.75
923.324,1209.25
924.277,1229.50
925.230,1175.75
926.183,1234.50
927.138,1248.50
928.091,1205.50
929.044,1255.50
929.996,1226.25
930.949,1258.50
931.902,1247.50
932.854,1210.50
933.806,1224.75
934.758,1188.25
935.711,1234.75
936.663,1230.75
937.614,1241.50
938.568,1188.75
939.520,1217.75
940.471,1249.25
941.423,1249.50
942.374,1257.00
943.326,1229.75
944.277,1240.75
945.228,1219.00
946.179,1198.50
947.130,1209.00
948.080,1193.00
949.031,1217.75
949.984,1191.50
950.934,1243.50
951.884,1210.75
952.835,1209.00
953.785,1240.75
954.735,1195.75
955.685,1213.50
956.635,1193.75
957.585,1207.50
958.534,1167.25
959.484,1172.50
960.433,1173.25
961.383,1154.25
962.334,1209.75
963.283,1198.00
964.232,1219.00
965.181,1144.75
966.130,1185.00
967.079,1191.75
968.027,1218.50
968.976,1161.00
969.924,1167.75
970.873,1138.50
971.821,1184.00
972.769,1177.50
973.719,1177.50
974.667,1149.50
975.615,1153.75
976.562,1181.50
977.510,1186.25
978.458,1139.50
979.405,1167.50
980.352,1186.00
981.300,1124.50
982.247,1162.25
983.194,1172.50
984.141,1182.25
985.088,1150.00
986.036,1105.25
986.983,1178.25
987.930,1188.00
988.876,1171.00
989.822,1088.75
990.769,1160.75
991.715,1140.00
992.661,1128.25
993.607,1117.50
994.553,1185.00
995.498,1145.25
996.444,1130.00
997.389,1132.50
998.337,1167.75
999.282,1164.75
1000.227,1095.00
1001.173,1162.00
1002.118,1117.75
1003.062,1105.00
1004.007,1141.00
1004.952,1120.25
1005.897,1149.75
1006.841,1098.50
1007.786,1133.50
1008.730,1116.75
1009.674,1117.75
1010.618,1122.25
1011.564,1137.75
1012.508,1174.25
1013.452,1125.50
1014.396,1121.50
1015.339,1191.25
1016.283,1137.75
1017.226,1151.00
1018.170,1190.75
1019.113,1132.50
1020.056,1111.00
1020.999,1140.75
1021.942,1171.25
1022.885,1130.75
1023.828,1087.25
1024.770,1151.75
1025.715,1130.00
1026.657,1180.25
1027.600,1119.25
1028.542,1146.75
1029.484,1112.00
1030.426,1171.75
1031.368,1158.25
1032.310,1152.25
1033.251,1107.00
1034.193,1117.50
1035.135,1112.00
1036.076,1125.75
1037.017,1128.00
1037.959,1171.50
1038.900,1116.50
1039.843,1137.25
1040.784,1180.50
1041.725,1158.25
1042.665,1122.25
1043.606,1110.50
1044.547,1117.00
1045.487,1123.50
1046.427,1176.25
1047.368,1133.75
1048.308,1146.75
1049.248,1115.75
1050.188,1139.50
1051.128,1150.00
1052.067,1150.00
1053.007,1132.50
1053.947,1145.25
1054.886,1155.75
1055.827,1140.25
1056.766,1152.25
1057.706,1126.75
1058.645,1145.75
1059.584,1171.00
1060.522,1137.25
1061.461,1132.25
1062.400,1131.50
1063.338,1153.00
1064.277,1186.75
1065.215,1178.25
1066.154,1154.75
1067.092,1157.25
1068.030,1232.75
1068.968,1178.25
1069.906,1151.00
1070.843,1161.50
1071.781,1186.00
1072.720,1178.25
1073.658,1238.00
1074.595,1207.00
1075.533,1148.75
1076.470,1140.50
1077.407,1161.25
1078.344,1179.00
1079.281,1187.75
1080.217,1222.00
1081.154,1145.75
1082.091,1218.50
1083.027,1220.50
1083.964,1187.00
1084.900,1185.25
1085.836,1210.00
1086.772,1196.00
1087.708,1192.00
1088.644,1206.25
1089.580,1188.25
1090.515,1161.75
1091.451,1162.50
1092.388,1173.50
1093.324,1189.75
1094.259,1167.00
1095.194,1200.00
1096.129,1197.50
1097.064,1192.00
1097.999,1167.00
1098.934,1186.75
1099.869,1182.50
1100.803,1138.75
1101.738,1205.75
1102.672,1134.25
1103.607,1194.25
1104.541,1162.50
1105.475,1150.25
1106.409,1185.75
1107.343,1149.00
1108.277,1125.50
1109.210,1140.25
1110.144,1117.00
1111.078,1142.50
1112.011,1133.50
1112.944,1141.75
1113.878,1110.25
1114.811,1093.00
1115.744,1120.75
1116.678,1101.50
1117.611,1095.00
1118.544,1105.25
1119.477,1113.50
1120.409,1136.00
1121.342,1100.75
1122.274,1107.25
1123.206,1112.50
1124.138,1097.00
1125.070,1086.50
1126.002,1093.75
1126.934,1098.25
1127.866,1064.50
1128.798,1096.00
1129.729,1075.50
1130.661,1034.50
1131.592,1076.50
1132.523,1007.75
1133.454,1082.50
1134.385,1047.00
1135.317,1058.25
1136.247,1039.75
1137.178,1076.25
1138.109,1075.75
1139.039,1039.00
1139.970,1024.75
1140.900,1012.25
1141.831,1044.25
1142.761,1032.25
1143.691,1055.75
1144.621,1077.00
1145.551,1042.00
1146.480,1038.25
1147.410,1025.00
1148.340,1047.50
1149.269,1042.50
1150.199,1008.25
1151.128,1007.00
1152.057,1049.50
1152.979,1052.25
1153.898,1005.50
1154.819,1029.00
1155.739,1011.50
1156.658,1021.00
1157.579,996.00
1158.498,983.25
1159.419,994.25
1160.338,968.25
1161.256,979.50
1162.177,1026.25
1163.095,1003.00
1164.016,1018.25
1164.934,981.00
1165.852,1012.75
1166.772,1072.00
1167.690,1020.00
1168.610,986.75
1169.528,1023.75
1170.446,985.00
1171.365,995.25
1172.283,999.25
1173.202,1015.75
1174.120,995.75
1175.037,978.25
1175.956,973.00
1176.873,995.75
1177.792,981.75
1178.709,969.00
1179.626,1018.25
1180.544,990.25
1181.461,992.25
1182.379,1004.00
1183.296,1016.50
1184.212,1040.25
1185.130,1008.25
1186.046,938.50
1186.962,987.00
1187.880,981.25
1188.796,941.25
1189.714,997.00
1190.629,981.75
1191.545,975.50
1192.462,978.25
1193.378,999.75
1194.295,952.75
1195.210,971.50
1196.125,957.50
1197.042,969.00
1197.957,969.25
1198.872,959.00
1199.788,982.25
1200.703,958.50
1201.619,974.50
1202.534,996.00
1203.448,997.75
1204.364,1046.25
1205.278,957.50
1206.192,987.25
1207.108,979.50
1208.022,1004.75
1208.938,1022.75
1209.851,994.50
1210.765,970.00
1211.680,963.50
1212.594,941.50
1213.507,961.25
1214.422,984.50
1215.335,1004.75
1216.248,976.50
1217.163,974.25
1218.076,986.75
1218.990,1004.00
1219.903,1003.75
1220.816,948.50
1221.730,993.00
1222.642,988.00
1223.554,990.00
1224.469,1021.00
1225.380,980.00
1226.292,967.75
1227.206,980.25
1228.118,1035.50
1229.032,1030.50
1229.943,1020.25
1230.855,996.75
1231.768,1001.25
1232.679,1001.25
1233.590,971.75
1234.503,981.25
1235.414,1015.75
1236.325,998.00
1237.238,1016.25
1238.149,989.00
1239.059,991.00
1239.972,982.00
1240.882,1012.75
1241.793,1001.00
1242.705,974.25
1243.615,1029.25
1244.525,976.50
1245.437,986.25
1246.347,983.25
1247.259,1008.50
1248.168,1045.75
1249.078,1011.00
1249.989,1015.75
1250.899,1019.75
1251.808,1012.50
1252.719,1008.00
1253.628,1007.00
1254.537,1026.25
1255.448,1002.75
1256.357,995.75
1257.266,1035.50
1258.176,989.50
1259.085,1008.25
1259.993,991.25
1260.904,1053.50
1261.812,999.75
1262.720,1044.75
1263.630,972.75
1264.538,989.75
1265.446,1028.00
1266.356,1021.00
1267.263,990.75
1268.171,990.75
1269.080,1020.75
1269.988,1032.25
1270.895,1034.00
1271.804,1011.25
1272.711,1000.00
1273.619,1026.75
1274.527,1016.75
1275.434,1022.50
1276.341,1014.75
1277.248,969.50
1278.156,1070.75
1279.063,994.00
1279.969,988.00
1280.877,932.25
1281.783,965.75
1282.690,1008.75
1283.598,1009.25
1284.503,1021.00
1285.409,1007.00
1286.317,1034.00
1287.223,986.75
1288.128,988.00
1289.036,981.50
1289.941,951.50
1290.846,969.75
1291.751,977.25
1292.658,987.25
1293.563,962.75
1294.468,973.50
1295.375,939.25
1296.280,988.00
1297.184,976.75
1298.091,950.25
1298.995,980.75
1299.900,963.75
1300.806,944.00
1301.710,973.75
1302.614,977.25
1303.518,988.75
1304.424,1015.00
1305.327,954.50
1306.231,918.50
1307.137,935.00
1308.040,887.00
1308.943,940.50
1309.847,956.25
1310.752,956.50
1311.655,927.50
1312.558,944.75
1313.463,925.75
1314.366,979.75
1315.269,928.50
1316.171,911.50
1317.076,938.25
1317.978,879.25
1318.881,930.50
1319.785,947.50
1320.687,922.00
1321.589,932.75
1322.491,870.25
1323.395,899.00
1324.297,916.50
1325.198,899.50
1326.102,894.25
1327.004,928.00
1327.905,922.50
1328.806,926.75
1329.709,934.50
