RamanScope Measure Spectrum Data V3.72

<< MEASURE CONDITION >>
Exposure Type,Aver
Exposure Time [sec],15
Exposure Count,30
Measure Time,2023/07/14 22:05:27
Data Name,""
Data Comment,""
Rayleigh Wave[nm],532.0

<< SAMPLE SPECTRUM >>
Wave[dcm-1],No109
146.591,711.93
147.626,829.30
148.664,1006.17
149.699,1189.57
150.737,1349.87
151.772,1550.73
152.809,1691.07
153.846,1871.10
154.881,2040.70
155.918,2177.03
156.953,2302.60
157.989,2427.57
159.026,2525.27
160.060,2599.53
161.096,2666.13
162.130,2697.23
163.167,2734.80
164.200,2826.10
165.236,2849.27
166.272,2913.83
167.305,2922.93
168.341,2964.53
169.374,3081.20
170.409,3062.13
171.445,3171.03
172.477,3221.40
173.512,3276.17
174.545,3338.80
175.580,3356.70
176.614,3415.17
177.647,3441.73
178.681,3459.90
179.713,3460.87
180.747,3426.50
181.781,3409.40
182.813,3374.67
183.847,3410.80
184.878,3411.47
185.912,3311.93
186.945,3406.00
187.976,3408.50
189.010,3408.13
190.043,3456.83
191.073,3467.03
192.106,3481.10
193.137,3585.57
194.170,3542.83
195.202,3586.17
196.232,3631.43
197.265,3623.27
198.297,3706.03
199.327,3787.13
200.359,3864.47
201.388,3950.07
202.420,4026.63
203.452,4094.07
204.481,4165.83
205.512,4293.43
206.544,4394.50
207.573,4505.23
208.604,4648.57
209.635,4811.70
210.663,4971.63
211.694,5150.10
212.725,5275.50
213.753,5441.13
214.783,5634.83
215.813,5742.07
216.841,5835.83
217.871,5922.20
218.899,5892.63
219.929,5973.80
220.959,5900.50
221.986,5796.53
223.016,5653.73
224.045,5509.13
225.072,5364.20
226.101,5316.67
227.130,5122.80
228.157,4969.17
229.185,4825.33
230.214,4763.43
231.241,4651.67
232.269,4550.23
233.297,4506.20
234.323,4498.97
235.351,4375.93
236.379,4362.37
237.407,4354.00
238.433,4316.90
239.460,4344.10
240.488,4335.30
241.513,4393.50
242.540,4365.40
243.568,4447.63
244.592,4429.93
245.619,4532.93
246.646,4558.47
247.671,4549.87
248.697,4523.73
249.724,4523.53
250.748,4470.93
251.774,4464.07
252.801,4458.00
253.827,4460.57
254.850,4430.73
255.876,4430.57
256.902,4506.17
257.925,4483.70
258.951,4521.37
259.976,4503.67
260.999,4616.37
262.024,4623.20
263.049,4674.40
264.074,4692.40
265.097,4740.90
266.122,4790.63
267.146,4867.03
268.168,4897.83
269.193,4967.87
270.217,5039.23
271.241,5053.90
272.263,5040.47
273.287,5152.70
274.311,5177.77
275.332,5280.40
276.356,5292.70
277.379,5357.97
278.402,5316.87
279.424,5278.47
280.447,5235.77
281.470,5184.17
282.492,5214.37
283.513,5080.40
284.536,5082.73
285.558,4971.97
286.581,4938.23
287.601,4814.20
288.623,4804.70
289.645,4686.30
290.665,4614.23
291.687,4539.47
292.709,4478.13
293.730,4416.33
294.750,4348.13
295.771,4249.90
296.792,4256.37
297.813,4167.73
298.832,4138.13
299.853,4078.80
300.874,3986.73
301.895,3974.63
302.913,3853.23
303.934,3863.00
304.954,3819.70
305.975,3759.07
306.993,3689.43
308.013,3639.67
309.033,3639.13
310.052,3601.83
311.072,3594.23
312.090,3539.43
313.109,3529.37
314.129,3469.20
315.148,3450.20
316.165,3438.13
317.184,3392.13
318.203,3394.07
319.222,3350.13
320.238,3319.73
321.257,3321.77
322.275,3292.50
323.294,3293.33
324.312,3288.77
325.328,3283.77
326.346,3259.47
327.364,3274.33
328.382,3245.60
329.397,3263.73
330.415,3215.77
331.432,3218.53
332.450,3204.03
333.467,3217.90
334.482,3193.40
335.499,3175.93
336.516,3144.47
337.533,3160.30
338.547,3171.57
339.564,3122.40
340.580,3166.83
341.597,3122.90
342.613,3125.40
343.627,3165.77
344.643,3129.03
345.659,3153.80
346.675,3123.33
347.690,3076.67
348.704,3102.07
349.719,3072.10
350.735,3062.57
351.750,3093.47
352.765,3030.43
353.778,3074.63
354.793,3073.00
355.808,3060.47
356.822,3093.83
357.837,3085.10
358.851,3087.57
359.864,3115.43
360.878,3082.37
361.892,3124.77
362.906,3107.33
363.920,3112.27
364.932,3062.90
365.945,3112.43
366.959,3109.23
367.972,3151.30
368.986,3121.87
369.999,3128.27
371.010,3170.90
372.023,3153.47
373.036,3120.53
374.049,3171.23
375.061,3222.10
376.072,3160.43
377.084,3230.10
378.097,3203.87
379.109,3239.13
380.121,3252.97
381.133,3218.93
382.143,3244.30
383.155,3211.80
384.166,3237.43
385.178,3211.47
386.189,3247.90
387.201,3243.80
388.212,3216.07
389.221,3237.10
390.232,3238.97
391.243,3207.70
392.254,3214.87
393.264,3186.73
394.275,3199.17
395.283,3221.13
396.294,3213.83
397.304,3216.43
398.314,3160.00
399.324,3154.60
400.334,3165.73
401.344,3140.63
402.351,3061.43
403.361,3123.53
404.370,3061.83
405.380,3100.73
406.389,3088.67
407.398,3047.87
408.407,3057.60
409.414,2999.63
410.423,3064.60
411.431,2989.37
412.440,2995.63
413.448,2962.60
414.457,2929.93
415.465,2884.33
416.471,2923.37
417.479,2898.27
418.487,2906.53
419.495,2919.20
420.503,2911.33
421.510,2891.90
422.518,2934.57
423.525,2920.93
424.530,2859.30
425.537,2874.57
426.544,2909.37
427.551,2858.60
428.558,2885.77
429.565,2861.60
430.571,2865.73
431.578,2839.97
432.582,2897.07
433.588,2809.13
434.595,2861.80
435.601,2860.87
436.607,2862.77
437.612,2833.03
438.618,2848.87
439.624,2820.43
440.627,2842.70
441.633,2850.70
442.638,2842.23
443.643,2836.70
444.648,2798.23
445.653,2831.43
446.658,2844.67
447.663,2836.00
448.667,2823.97
449.672,2832.30
450.674,2829.03
451.678,2837.53
452.682,2847.63
453.687,2874.33
454.690,2910.40
455.694,2850.77
456.698,2866.43
457.702,2871.27
458.705,2859.90
459.709,2847.50
460.710,2865.93
461.713,2899.67
462.716,2843.47
463.719,2883.33
464.722,2875.37
465.725,2823.70
466.727,2891.97
467.730,2897.73
468.732,2887.67
469.735,2871.93
470.737,2902.57
471.737,2867.20
472.739,2868.87
473.741,2907.13
474.742,2952.63
475.744,2922.10
476.746,2876.67
477.747,2943.87
478.748,2903.43
479.750,2914.53
480.751,2929.70
481.752,2944.73
482.753,2889.93
483.751,2907.73
484.752,2915.70
485.753,2943.60
486.753,2907.47
487.753,2907.57
488.754,2947.80
489.754,2882.43
490.754,2939.80
491.754,2929.17
492.754,2892.30
493.753,2912.47
494.753,2968.17
495.752,2909.00
496.752,2893.80
497.749,2929.43
498.748,2888.40
499.747,2897.97
500.746,2905.73
501.745,2858.60
502.744,2842.10
503.742,2847.90
504.741,2891.80
505.739,2852.13
506.737,2853.10
507.735,2852.60
508.734,2854.20
509.732,2865.33
510.729,2836.20
511.727,2769.47
512.725,2797.17
513.720,2764.00
514.718,2863.03
515.715,2810.63
516.712,2736.23
517.709,2752.80
518.706,2750.17
519.703,2781.67
520.700,2776.00
521.696,2775.30
522.693,2787.50
523.689,2774.27
524.686,2773.20
525.682,2817.50
526.678,2763.53
527.674,2767.50
528.670,2771.47
529.666,2829.27
530.661,2820.03
531.657,2295.43
532.652,2790.00
533.648,2771.77
534.641,2828.90
535.636,2800.00
536.631,2835.37
537.626,2803.47
538.621,2802.33
539.616,2776.00
540.610,2816.57
541.605,2815.23
542.599,2828.53
543.593,2799.00
544.587,2834.77
545.581,2797.00
546.575,2822.97
547.569,2843.33
548.563,2816.67
549.557,2813.43
550.550,2819.70
551.543,2819.53
552.537,2803.93
553.530,2775.77
554.523,2818.93
555.516,2836.30
556.509,2851.60
557.502,2799.60
558.494,2866.87
559.487,2827.63
560.479,2878.00
561.472,2913.37
562.464,2860.03
563.456,2824.60
564.448,2855.77
565.440,2830.20
566.432,2855.57
567.423,2882.03
568.415,2896.27
569.404,2870.93
570.396,2881.70
571.387,2864.70
572.378,2931.27
573.369,2907.30
574.360,2920.07
575.351,2921.43
576.341,2916.03
577.332,2968.07
578.323,2929.40
579.313,2939.23
580.303,2910.83
581.293,2921.80
582.283,2947.70
583.273,3005.97
584.263,2979.77
585.253,2950.30
586.243,3003.13
587.232,3017.27
588.222,2998.30
589.211,3003.77
590.200,2970.07
591.189,3007.73
592.178,2974.47
593.167,3032.13
594.156,3036.67
595.145,3011.50
596.133,2983.23
597.122,3000.47
598.110,3004.60
599.098,3007.03
600.086,2969.63
601.074,3004.43
602.062,2951.37
603.050,3000.97
604.038,3014.93
605.025,2946.40
606.013,2971.97
607.000,2968.70
607.987,2971.63
608.975,2952.00
609.962,2903.20
610.949,2868.57
611.936,2892.87
612.922,2925.70
613.909,2910.47
614.895,2887.27
615.882,2847.17
616.868,2831.27
617.854,2802.93
618.841,2857.43
619.826,2807.50
620.812,2784.30
621.798,2777.37
622.784,2765.30
623.769,2747.40
624.755,2736.20
625.740,2710.53
626.725,2674.70
627.711,2655.50
628.698,2665.67
629.683,2642.37
630.667,2612.47
631.652,2562.90
632.637,2547.07
633.621,2590.73
634.606,2548.17
635.590,2525.83
636.574,2496.47
637.558,2497.40
638.542,2502.70
639.526,2496.07
640.510,2454.63
641.493,2450.03
642.477,2454.60
643.460,2399.53
644.444,2462.47
645.427,2414.90
646.410,2395.03
647.393,2382.77
648.376,2381.23
649.359,2390.90
650.341,2355.97
651.324,2372.87
652.307,2335.07
653.289,2333.30
654.271,2356.50
655.253,2354.33
656.235,2264.53
657.217,2301.30
658.199,2325.60
659.181,2300.37
660.163,2295.93
661.144,2282.67
662.126,2281.43
663.107,2236.70
664.088,2349.87
665.069,2258.53
666.050,2280.33
667.033,2261.40
668.014,2232.87
668.995,2211.07
669.975,2282.57
670.956,2223.70
671.936,2235.23
672.916,2193.67
673.896,2206.93
674.876,2198.13
675.856,2145.73
676.836,2147.13
677.816,2121.30
678.795,2130.17
679.775,2088.87
680.754,2134.50
681.734,2150.87
682.713,2086.67
683.692,2104.60
684.671,2059.20
685.650,2045.33
686.629,2032.50
687.607,2000.37
688.586,1995.53
689.564,2044.17
690.543,2025.17
691.523,1964.07
692.501,2030.77
693.479,2011.83
694.457,1910.50
695.435,1941.40
696.413,1954.20
697.390,1967.83
698.368,1922.47
699.345,1930.60
700.322,1916.23
701.300,1919.07
702.277,1920.23
703.254,1935.53
704.231,1864.87
705.207,1877.13
706.184,1884.60
707.161,1847.27
708.137,1878.80
709.113,1839.60
710.090,1845.27
711.068,1870.43
712.044,1845.50
713.020,1863.00
713.996,1830.73
714.971,1824.60
715.947,1790.93
716.922,1828.03
717.898,1820.17
718.873,1831.17
719.848,1781.37
720.823,1783.50
721.798,1749.60
722.773,1825.23
723.748,1798.70
724.723,1782.17
725.697,1800.70
726.672,1753.20
727.646,1769.10
728.622,1720.17
729.596,1765.00
730.570,1753.43
731.544,1751.17
732.518,1750.40
733.492,1732.50
734.466,1758.37
735.439,1723.63
736.413,1746.00
737.386,1712.90
738.359,1725.83
739.332,1741.67
740.305,1718.03
741.278,1723.40
742.251,1715.43
743.224,1678.47
744.196,1703.70
745.171,1742.80
746.143,1672.60
747.115,1679.60
748.087,1698.70
749.059,1704.90
750.031,1693.17
751.003,1720.17
751.975,1742.20
752.947,1665.20
753.918,1670.03
754.890,1661.03
755.861,1658.37
756.832,1617.97
757.803,1640.53
758.774,1684.13
759.747,1629.60
760.718,1638.47
761.689,1620.50
762.659,1575.63
763.630,1599.53
764.600,1596.73
765.570,1624.10
766.540,1561.37
767.510,1598.60
768.480,1613.00
769.450,1554.50
770.420,1582.67
771.390,1560.67
772.359,1548.47
773.329,1594.77
774.300,1562.17
775.269,1575.37
776.238,1591.37
777.207,1556.63
778.176,1573.60
779.145,1574.07
780.114,1560.73
781.083,1521.90
782.051,1525.33
783.019,1535.00
783.988,1567.70
784.956,1550.07
785.924,1559.63
786.894,1551.07
787.862,1466.67
788.830,1517.63
789.797,1501.57
790.765,1507.37
791.732,1521.63
792.700,1479.90
793.667,1514.80
794.634,1511.63
795.601,1511.03
796.568,1522.20
797.535,1514.73
798.502,1529.40
799.468,1462.23
800.437,1454.97
801.403,1522.03
802.370,1494.17
803.336,1480.10
804.302,1471.30
805.268,1477.13
806.234,1479.10
807.200,1450.30
808.166,1445.90
809.131,1420.23
810.097,1435.53
811.062,1471.03
812.027,1444.70
812.994,1411.77
813.960,1418.13
814.925,1378.13
815.889,1391.27
816.854,1418.63
817.819,1445.20
818.783,1387.90
819.748,1445.47
820.712,1403.40
821.677,1395.37
822.641,1412.47
823.605,1397.43
824.571,1403.13
825.534,1386.57
826.498,1388.07
827.462,1430.10
828.425,1423.60
829.389,1415.13
830.352,1378.20
831.315,1340.30
832.279,1397.37
833.242,1394.70
834.204,1400.63
835.167,1320.27
836.132,1385.07
837.095,1410.47
838.057,1375.20
839.020,1362.33
839.982,1392.13
840.944,1340.77
841.906,1365.40
842.868,1366.63
843.830,1377.43
844.792,1348.47
845.753,1348.67
846.715,1356.23
847.679,1340.57
848.640,1379.80
849.601,1362.87
850.562,1367.70
851.523,1334.17
852.484,1339.53
853.445,1316.30
854.406,1385.70
855.367,1360.37
856.327,1343.07
857.288,1351.20
858.248,1322.73
859.210,1318.80
860.170,1313.20
861.130,1296.93
862.090,1300.00
863.050,1310.67
864.010,1299.07
864.969,1358.70
865.929,1318.93
866.888,1339.70
867.848,1330.73
868.807,1306.07
869.766,1347.70
870.727,1307.63
871.686,1327.10
872.645,1308.17
873.604,1311.10
874.562,1325.07
875.521,1315.00
876.479,1367.23
877.437,1329.50
878.396,1321.10
879.354,1372.07
880.312,1310.10
881.270,1298.43
882.229,1329.47
883.187,1310.10
884.145,1322.63
885.102,1316.80
886.059,1322.83
887.017,1279.03
887.974,1272.40
888.931,1300.07
889.888,1343.10
890.845,1260.97
891.802,1313.47
892.758,1316.70
893.717,1313.13
894.673,1290.57
895.630,1312.80
896.586,1306.97
897.542,1307.93
898.498,1307.00
899.454,1325.63
900.410,1321.37
901.366,1323.83
902.321,1327.33
903.277,1300.90
904.232,1288.93
905.189,1296.83
906.145,1272.37
907.100,1293.10
908.055,1315.07
909.010,1301.30
909.965,1307.00
910.919,1338.23
911.874,1281.83
912.828,1328.00
913.783,1296.60
914.737,1320.60
915.693,1302.60
916.648,1289.03
917.602,1369.40
918.555,1313.90
919.509,1321.83
920.463,1294.57
921.417,1323.37
922.370,1273.30
923.324,1312.00
924.277,1353.53
925.230,1330.20
926.183,1276.27
927.138,1344.50
928.091,1326.53
929.044,1298.23
929.996,1305.20
930.949,1295.10
931.902,1322.23
932.854,1339.50
933.806,1323.10
934.758,1313.47
935.711,1330.60
936.663,1297.37
937.614,1343.93
938.568,1333.47
939.520,1297.57
940.471,1314.90
941.423,1334.93
942.374,1327.27
943.326,1314.93
944.277,1292.43
945.228,1326.70
946.179,1309.50
947.130,1298.77
948.080,1344.37
949.031,1289.03
949.984,1314.30
950.934,1273.47
951.884,1308.10
952.835,1318.67
953.785,1330.07
954.735,1292.80
955.685,1299.30
956.635,1272.37
957.585,1319.10
958.534,1319.63
959.484,1270.37
960.433,1299.40
961.383,1332.90
962.334,1308.23
963.283,1300.77
964.232,1298.13
965.181,1275.77
966.130,1311.17
967.079,1287.73
968.027,1268.33
968.976,1280.47
969.924,1306.63
970.873,1295.70
971.821,1276.03
972.769,1283.67
973.719,1278.27
974.667,1302.63
975.615,1253.17
976.562,1308.60
977.510,1299.23
978.458,1266.37
979.405,1279.03
980.352,1241.13
981.300,1274.47
982.247,1297.07
983.194,1266.23
984.141,1302.47
985.088,1325.17
986.036,1293.33
986.983,1262.63
987.930,1283.50
988.876,1292.23
989.822,1284.67
990.769,1303.50
991.715,1259.83
992.661,1280.67
993.607,1271.53
994.553,1284.80
995.498,1297.10
996.444,1288.53
997.389,1296.33
998.337,1259.73
999.282,1276.50
1000.227,1278.87
1001.173,1299.23
1002.118,1278.13
1003.062,1272.70
1004.007,1292.57
1004.952,1300.20
1005.897,1307.50
1006.841,1293.13
1007.786,1306.60
1008.730,1237.60
1009.674,1304.20
1010.618,1239.97
1011.564,1290.50
1012.508,1283.17
1013.452,1266.03
1014.396,1279.07
1015.339,1276.80
1016.283,1300.50
1017.226,1281.67
1018.170,1272.53
1019.113,1265.47
1020.056,1280.27
1020.999,1292.67
1021.942,1268.13
1022.885,1314.50
1023.828,1331.27
1024.770,1290.37
1025.715,1256.10
1026.657,1295.57
1027.600,1316.47
1028.542,1294.90
1029.484,1283.73
1030.426,1330.20
1031.368,1288.57
1032.310,1323.13
1033.251,1312.67
1034.193,1272.20
1035.135,1274.30
1036.076,1281.83
1037.017,1297.57
1037.959,1331.37
1038.900,1332.10
1039.843,1312.87
1040.784,1299.37
1041.725,1336.23
1042.665,1341.20
1043.606,1334.50
1044.547,1312.37
1045.487,1290.47
1046.427,1322.80
1047.368,1317.03
1048.308,1332.90
1049.248,1316.10
1050.188,1338.07
1051.128,1283.83
1052.067,1305.13
1053.007,1327.73
1053.947,1342.83
1054.886,1360.23
1055.827,1325.33
1056.766,1368.43
1057.706,1350.50
1058.645,1351.90
1059.584,1364.00
1060.522,1333.67
1061.461,1323.33
1062.400,1350.37
1063.338,1357.33
1064.277,1355.23
1065.215,1392.40
1066.154,1354.53
1067.092,1338.33
1068.030,1369.37
1068.968,1377.93
1069.906,1354.47
1070.843,1363.27
1071.781,1409.57
1072.720,1394.10
1073.658,1395.53
1074.595,1399.60
1075.533,1372.17
1076.470,1431.20
1077.407,1403.57
1078.344,1409.27
1079.281,1396.53
1080.217,1400.33
1081.154,1394.03
1082.091,1395.97
1083.027,1368.53
1083.964,1393.37
1084.900,1396.43
1085.836,1404.03
1086.772,1396.43
1087.708,1406.20
1088.644,1386.03
1089.580,1401.37
1090.515,1406.67
1091.451,1427.27
1092.388,1395.77
1093.324,1411.73
1094.259,1429.07
1095.194,1418.20
1096.129,1383.37
1097.064,1385.00
1097.999,1397.00
1098.934,1414.07
1099.869,1351.13
1100.803,1415.50
1101.738,1404.93
1102.672,1338.40
1103.607,1400.77
1104.541,1342.83
1105.475,1358.43
1106.409,1353.90
1107.343,1363.20
1108.277,1387.87
1109.210,1337.13
1110.144,1364.90
1111.078,1349.33
1112.011,1323.57
1112.944,1313.33
1113.878,1321.80
1114.811,1310.63
1115.744,1323.90
1116.678,1306.60
1117.611,1346.03
1118.544,1297.90
1119.477,1264.57
1120.409,1291.03
1121.342,1331.17
1122.274,1300.50
1123.206,95.30
1124.138,1235.07
1125.070,1288.83
1126.002,1332.63
1126.934,1230.23
1127.866,1268.07
1128.798,1267.87
1129.729,1240.93
1130.661,1260.80
1131.592,1248.40
1132.523,1209.67
1133.454,1275.43
1134.385,1211.73
1135.317,1197.30
1136.247,1227.37
1137.178,1233.60
1138.109,1238.47
1139.039,1217.40
1139.970,1220.33
1140.900,1198.10
1141.831,1240.17
1142.761,1181.63
1143.691,1683.47
1144.621,1186.87
1145.551,1209.87
1146.480,1198.03
1147.410,1238.40
1148.340,1169.17
1149.269,1187.00
1150.199,1152.37
1151.128,1156.17
1152.057,1179.93
1152.979,1148.77
1153.898,1166.43
1154.819,1190.73
1155.739,1195.30
1156.658,1156.53
1157.579,1155.33
1158.498,1163.13
1159.419,1147.30
1160.338,1129.40
1161.256,1144.93
1162.177,1153.63
1163.095,1140.07
1164.016,1176.43
1164.934,1184.13
1165.852,1149.63
1166.772,1134.37
1167.690,1134.60
1168.610,1171.23
1169.528,1183.20
1170.446,1149.33
1171.365,1130.27
1172.283,1158.87
1173.202,1114.90
1174.120,1172.23
1175.037,1125.07
1175.956,1103.40
1176.873,1125.33
1177.792,1118.40
1178.709,1139.30
1179.626,1141.00
1180.544,1145.47
1181.461,1138.90
1182.379,1117.63
1183.296,1144.80
1184.212,1099.77
1185.130,1103.47
1186.046,1126.53
1186.962,1153.67
1187.880,1136.07
1188.796,1095.30
1189.714,1099.70
1190.629,1113.87
1191.545,1122.20
1192.462,1104.37
1193.378,1103.67
1194.295,1090.00
1195.210,1132.17
1196.125,1156.90
1197.042,1090.77
1197.957,1113.77
1198.872,1088.43
1199.788,1130.10
1200.703,1131.97
1201.619,1100.67
1202.534,1128.03
1203.448,1119.43
1204.364,1080.97
1205.278,1094.87
1206.192,1117.30
1207.108,1118.93
1208.022,1146.87
1208.938,1112.90
1209.851,1096.60
1210.765,1125.80
1211.680,1084.00
1212.594,1086.77
1213.507,1096.33
1214.422,1103.13
1215.335,1149.47
1216.248,1110.00
1217.163,1140.13
1218.076,1103.17
1218.990,1149.37
1219.903,1130.43
1220.816,1062.13
1221.730,1086.13
1222.642,1100.93
1223.554,1124.70
1224.469,1147.67
1225.380,1114.50
1226.292,1074.33
1227.206,1149.43
1228.118,1124.83
1229.032,1101.97
1229.943,1147.90
1230.855,1091.37
1231.768,1112.33
1232.679,1130.63
1233.590,1111.43
1234.503,1149.67
1235.414,1127.73
1236.325,1117.57
1237.238,1130.40
1238.149,1151.33
1239.059,1123.43
1239.972,1092.40
1240.882,1130.97
1241.793,1140.47
1242.705,1142.50
1243.615,1149.17
1244.525,1127.93
1245.437,1125.30
1246.347,1153.47
1247.259,1147.80
1248.168,1126.27
1249.078,1160.33
1249.989,1153.43
1250.899,1146.37
1251.808,1178.57
1252.719,1105.20
1253.628,1140.87
1254.537,1127.10
1255.448,1131.70
1256.357,1115.30
1257.266,1145.10
1258.176,1133.43
1259.085,1129.93
1259.993,1104.97
1260.904,1144.30
1261.812,1121.90
1262.720,1133.70
1263.630,1124.13
1264.538,1141.83
1265.446,1157.00
1266.356,1136.83
1267.263,1151.57
1268.171,1144.50
1269.080,1109.63
1269.988,1167.77
1270.895,1115.23
1271.804,1139.83
1272.711,1165.60
1273.619,1128.40
1274.527,1160.47
1275.434,1148.47
1276.341,1140.47
1277.248,1123.57
1278.156,1130.37
1279.063,1123.23
1279.969,1135.00
1280.877,1189.27
1281.783,1140.23
1282.690,1136.03
1283.598,1132.70
1284.503,1108.07
1285.409,1103.87
1286.317,1142.77
1287.223,1130.77
1288.128,1123.27
1289.036,1164.67
1289.941,1119.00
1290.846,1113.03
1291.751,1105.70
1292.658,1106.57
1293.563,1123.93
1294.468,1148.93
1295.375,1103.63
1296.280,1135.00
1297.184,1151.80
1298.091,1103.50
1298.995,1105.53
1299.900,1132.03
1300.806,1125.93
1301.710,1082.03
1302.614,1098.30
1303.518,1111.53
1304.424,1093.27
1305.327,1085.33
1306.231,1115.10
1307.137,1107.73
1308.040,1089.27
1308.943,1101.27
1309.847,1072.17
1310.752,1089.20
1311.655,1072.33
1312.558,1069.03
1313.463,1078.97
1314.366,1071.63
1315.269,1064.93
1316.171,1058.50
1317.076,1039.70
1317.978,1047.77
1318.881,1040.90
1319.785,1053.37
1320.687,1027.67
1321.589,1036.90
1322.491,1025.20
