RamanScope Measure Spectrum Data V3.72

<< MEASURE CONDITION >>
Exposure Type,Aver
Exposure Time [sec],15
Exposure Count,30
Measure Time,2023/07/12 12:13:59
Data Name,""
Data Comment,""
Rayleigh Wave[nm],532.0

<< SAMPLE SPECTRUM >>
Wave[dcm-1],No17
146.591,1095.77
147.626,1324.10
148.664,1500.63
149.699,1716.07
150.737,1997.07
151.772,2184.17
152.809,2388.43
153.846,2555.87
154.881,2710.63
155.918,2863.90
156.953,2994.73
157.989,3081.57
159.026,3161.33
160.060,3211.70
161.096,3318.33
162.130,3357.47
163.167,3390.63
164.200,3410.30
165.236,3510.13
166.272,3592.43
167.305,3610.83
168.341,3719.23
169.374,3782.17
170.409,3829.27
171.445,3966.50
172.477,3988.40
173.512,4008.03
174.545,4071.40
175.580,4100.47
176.614,4083.83
177.647,4084.03
178.681,4043.83
179.713,4067.90
180.747,4000.33
181.781,3990.60
182.813,3955.17
183.847,3900.03
184.878,3936.33
185.912,3906.33
186.945,3955.83
187.976,3898.67
189.010,3930.83
190.043,3928.27
191.073,3964.87
192.106,4032.60
193.137,4009.23
194.170,4073.97
195.202,4094.17
196.232,4137.23
197.265,4209.47
198.297,4259.23
199.327,4285.73
200.359,4328.87
201.388,4360.43
202.420,4454.90
203.452,4543.50
204.481,4629.27
205.512,4672.93
206.544,4854.23
207.573,4847.33
208.604,4992.77
209.635,5098.33
210.663,5241.93
211.694,5354.10
212.725,5476.43
213.753,5607.67
214.783,5724.87
215.813,5735.17
216.841,5855.53
217.871,5791.20
218.899,5807.13
219.929,5742.63
220.959,5694.90
221.986,5576.30
223.016,5502.37
224.045,5373.60
225.072,5312.03
226.101,5190.43
227.130,5110.03
228.157,4990.33
229.185,4969.07
230.214,4834.90
231.241,4792.67
232.269,4775.43
233.297,4716.30
234.323,4742.63
235.351,4696.50
236.379,4687.83
237.407,4667.07
238.433,4699.40
239.460,4723.23
240.488,4762.80
241.513,4812.97
242.540,4895.10
243.568,4959.13
244.592,4989.10
245.619,5014.73
246.646,4999.03
247.671,4965.80
248.697,4930.57
249.724,4867.83
250.748,4849.50
251.774,4807.60
252.801,4797.47
253.827,4789.03
254.850,4774.33
255.876,4780.43
256.902,4798.90
257.925,4818.17
258.951,4809.00
259.976,4876.33
260.999,4948.53
262.024,4943.10
263.049,4919.20
264.074,4922.93
265.097,5004.47
266.122,5038.73
267.146,5013.83
268.168,5114.03
269.193,5151.33
270.217,5147.33
271.241,5195.97
272.263,5292.97
273.287,5276.27
274.311,5332.07
275.332,5360.40
276.356,5341.83
277.379,5374.33
278.402,5357.87
279.424,5300.73
280.447,5223.13
281.470,5181.03
282.492,5119.90
283.513,5075.70
284.536,5021.97
285.558,4933.97
286.581,4892.83
287.601,4830.40
288.623,4768.90
289.645,4710.97
290.665,4713.93
291.687,4645.90
292.709,4546.47
293.730,4463.23
294.750,4451.50
295.771,4390.00
296.792,4387.53
297.813,4320.67
298.832,4271.87
299.853,4268.13
300.874,4215.80
301.895,4179.30
302.913,4141.53
303.934,4075.67
304.954,4034.83
305.975,4060.33
306.993,4007.57
308.013,3974.33
309.033,3937.30
310.052,3893.80
311.072,3951.83
312.090,3865.60
313.109,3886.33
314.129,3878.53
315.148,3833.63
316.165,3869.27
317.184,3820.03
318.203,3796.57
319.222,3742.43
320.238,3724.27
321.257,3766.10
322.275,3755.83
323.294,3702.93
324.312,3705.03
325.328,3691.03
326.346,3615.80
327.364,3696.53
328.382,3691.70
329.397,3651.93
330.415,3661.03
331.432,3649.03
332.450,3614.83
333.467,3658.30
334.482,3586.80
335.499,3520.50
336.516,3606.33
337.533,3595.93
338.547,3588.30
339.564,3614.60
340.580,3568.70
341.597,3524.50
342.613,3549.10
343.627,3538.67
344.643,3556.53
345.659,3533.90
346.675,3547.03
347.690,3536.90
348.704,3480.23
349.719,3457.47
350.735,3455.67
351.750,3476.17
352.765,3467.20
353.778,3479.90
354.793,3438.03
355.808,3512.70
356.822,3491.87
357.837,3472.00
358.851,3487.07
359.864,3465.20
360.878,3491.37
361.892,3518.67
362.906,3484.40
363.920,3463.53
364.932,3478.87
365.945,3475.70
366.959,3503.17
367.972,3511.10
368.986,3542.03
369.999,3516.10
371.010,3555.27
372.023,3552.40
373.036,3528.27
374.049,3514.43
375.061,3568.53
376.072,3566.87
377.084,3604.27
378.097,3580.87
379.109,3561.10
380.121,3597.03
381.133,3592.97
382.143,3603.77
383.155,3603.37
384.166,3603.23
385.178,3587.30
386.189,3578.33
387.201,3657.37
388.212,3646.57
389.221,3537.13
390.232,3579.63
391.243,3597.33
392.254,3550.17
393.264,3564.80
394.275,3581.37
395.283,3575.00
396.294,3549.27
397.304,3550.37
398.314,3483.73
399.324,3479.57
400.334,3484.50
401.344,3449.73
402.351,3458.17
403.361,3460.97
404.370,3480.77
405.380,3473.93
406.389,3418.33
407.398,3459.47
408.407,3369.63
409.414,3344.17
410.423,3356.97
411.431,3377.83
412.440,3328.80
413.448,3363.73
414.457,3344.03
415.465,3331.63
416.471,3336.00
417.479,3370.33
418.487,3345.57
419.495,3343.57
420.503,3310.47
421.510,3325.83
422.518,3345.53
423.525,3304.33
424.530,3257.20
425.537,3318.83
426.544,3290.67
427.551,3308.90
428.558,3227.13
429.565,3312.30
430.571,3293.77
431.578,3298.07
432.582,3327.97
433.588,3255.87
434.595,3293.30
435.601,3266.27
436.607,3280.90
437.612,3307.03
438.618,3302.80
439.624,3321.47
440.627,3290.67
441.633,3289.27
442.638,3267.00
443.643,3285.57
444.648,3282.23
445.653,3277.53
446.658,3289.93
447.663,3246.23
448.667,3280.53
449.672,3330.40
450.674,3302.20
451.678,3362.47
452.682,3327.30
453.687,3302.60
454.690,3259.97
455.694,3304.80
456.698,3375.60
457.702,3334.53
458.705,3300.13
459.709,3326.57
460.710,3355.87
461.713,3386.70
462.716,3344.20
463.719,3336.73
464.722,3359.43
465.725,3364.07
466.727,3387.67
467.730,3382.97
468.732,3357.97
469.735,3344.57
470.737,3387.83
471.737,3399.50
472.739,3427.67
473.741,3353.90
474.742,3354.77
475.744,3405.33
476.746,3361.57
477.747,3383.47
478.748,3366.00
479.750,3354.47
480.751,3412.27
481.752,3425.40
482.753,3432.07
483.751,3373.20
484.752,3392.83
485.753,3405.00
486.753,3455.57
487.753,3470.70
488.754,3426.73
489.754,3414.13
490.754,3383.17
491.754,3446.80
492.754,3391.77
493.753,3398.27
494.753,3455.30
495.752,3358.47
496.752,3400.43
497.749,3400.70
498.748,3447.10
499.747,3365.47
500.746,3391.10
501.745,3408.00
502.744,3389.00
503.742,3307.50
504.741,3348.20
505.739,3309.40
506.737,3335.57
507.735,3337.80
508.734,3335.13
509.732,3267.93
510.729,3265.20
511.727,3311.23
512.725,3276.70
513.720,3315.33
514.718,3285.30
515.715,3221.13
516.712,3235.73
517.709,3271.53
518.706,3264.87
519.703,3243.83
520.700,3226.27
521.696,3290.50
522.693,3259.80
523.689,3318.37
524.686,3265.70
525.682,3282.23
526.678,3261.10
527.674,3279.30
528.670,3322.93
529.666,3317.37
530.661,3298.03
531.657,3303.70
532.652,3316.57
533.648,3357.77
534.641,3384.30
535.636,3344.43
536.631,3350.20
537.626,3343.33
538.621,3356.43
539.616,3344.97
540.610,3310.67
541.605,3323.17
542.599,3374.43
543.593,3360.80
544.587,3355.33
545.581,3328.23
546.575,3308.23
547.569,3298.60
548.563,3377.27
549.557,3356.53
550.550,3311.97
551.543,3298.03
552.537,3303.23
553.530,3323.23
554.523,3323.00
555.516,3289.33
556.509,3295.13
557.502,3288.03
558.494,3257.30
559.487,3347.43
560.479,3310.27
561.472,3293.63
562.464,3248.30
563.456,3280.97
564.448,3283.53
565.440,3312.90
566.432,3251.20
567.423,3293.43
568.415,3289.70
569.404,3319.93
570.396,3326.67
571.387,3295.53
572.378,3355.87
573.369,3325.13
574.360,3400.73
575.351,3354.63
576.341,3364.77
577.332,3346.23
578.323,3362.00
579.313,3368.77
580.303,3359.97
581.293,3406.20
582.283,3355.40
583.273,3392.67
584.263,3424.23
585.253,3403.80
586.243,3448.23
587.232,3482.73
588.222,3395.23
589.211,3394.90
590.200,3500.70
591.189,3511.77
592.178,3489.53
593.167,3459.33
594.156,3412.10
595.145,3492.33
596.133,3510.13
597.122,3535.63
598.110,3505.87
599.098,3502.27
600.086,3538.80
601.074,3544.77
602.062,3552.70
603.050,3549.33
604.038,3550.27
605.025,3565.27
606.013,3567.80
607.000,3529.93
607.987,3561.47
608.975,3483.37
609.962,3505.67
610.949,3521.43
611.936,3511.57
612.922,3495.83
613.909,3445.13
614.895,3417.07
615.882,3454.13
616.868,3419.40
617.854,3372.00
618.841,3343.77
619.826,3318.80
620.812,3329.33
621.798,3274.00
622.784,3266.13
623.769,3226.60
624.755,3239.20
625.740,3221.23
626.725,3190.77
627.711,3106.40
628.698,3122.03
629.683,3102.90
630.667,3048.20
631.652,3051.30
632.637,3012.63
633.621,3026.30
634.606,2973.17
635.590,2953.13
636.574,2961.07
637.558,2913.13
638.542,2939.13
639.526,2862.73
640.510,2853.00
641.493,2840.73
642.477,2862.00
643.460,2804.37
644.444,2816.27
645.427,2763.20
646.410,2735.83
647.393,2778.33
648.376,2741.67
649.359,2728.50
650.341,2706.50
651.324,2734.23
652.307,2708.70
653.289,2695.13
654.271,2720.07
655.253,2649.30
656.235,2667.97
657.217,2698.77
658.199,2685.07
659.181,2596.00
660.163,2657.97
661.144,2647.00
662.126,2678.47
663.107,2630.43
664.088,2643.47
665.069,2565.40
666.050,2575.50
667.033,2549.60
668.014,2565.17
668.995,2583.50
669.975,2529.00
670.956,2538.20
671.936,2520.43
672.916,2577.27
673.896,2534.23
674.876,2490.20
675.856,2460.10
676.836,2430.67
677.816,2431.93
678.795,2433.37
679.775,2412.43
680.754,2352.30
681.734,2344.60
682.713,2310.23
683.692,2325.30
684.671,2334.90
685.650,2287.70
686.629,2293.43
687.607,2226.80
688.586,2231.97
689.564,2240.77
690.543,2233.30
691.523,2187.57
692.501,2191.53
693.479,2186.93
694.457,2190.63
695.435,2181.07
696.413,2145.10
697.390,2139.37
698.368,2091.23
699.345,2149.70
700.322,2132.67
701.300,2111.10
702.277,2106.63
703.254,2076.50
704.231,2104.20
705.207,2093.80
706.184,2076.97
707.161,2062.30
708.137,2064.50
709.113,2017.20
710.090,2035.80
711.068,2098.13
712.044,2044.60
713.020,1960.17
713.996,1997.50
714.971,2033.03
715.947,1984.53
716.922,1936.83
717.898,1921.90
718.873,1960.10
719.848,1935.30
720.823,1956.53
721.798,1951.33
722.773,1999.00
723.748,1898.30
724.723,1924.60
725.697,1929.03
726.672,1943.00
727.646,1936.77
728.622,1923.50
729.596,1897.13
730.570,1882.53
731.544,1916.20
732.518,1922.03
733.492,1882.33
734.466,1922.67
735.439,1890.50
736.413,1866.87
737.386,1889.97
738.359,1868.40
739.332,1862.70
740.305,1849.77
741.278,1860.90
742.251,1885.27
743.224,1868.00
744.196,1835.20
745.171,1840.33
746.143,1842.87
747.115,1825.47
748.087,1838.03
749.059,1832.53
750.031,1802.03
751.003,1773.03
751.975,1795.50
752.947,1841.73
753.918,1819.10
754.890,1802.97
755.861,1758.00
756.832,1743.13
757.803,1785.83
758.774,1734.60
759.747,1777.57
760.718,1705.03
761.689,1757.63
762.659,1730.63
763.630,1763.00
764.600,1705.87
765.570,1701.07
766.540,1695.93
767.510,1697.73
768.480,1700.27
769.450,1730.87
770.420,1710.87
771.390,1683.53
772.359,1688.10
773.329,1705.40
774.300,1683.43
775.269,1661.27
776.238,1701.23
777.207,1713.43
778.176,1675.23
779.145,1664.07
780.114,1685.77
781.083,1653.83
782.051,1647.63
783.019,1657.30
783.988,1621.87
784.956,1650.00
785.924,1618.40
786.894,1636.17
787.862,1613.93
788.830,1597.20
789.797,1628.77
790.765,1603.33
791.732,1609.33
792.700,1578.37
793.667,1610.80
794.634,1535.60
795.601,1606.23
796.568,1584.23
797.535,1602.53
798.502,1560.80
799.468,1539.97
800.437,1582.43
801.403,1558.23
802.370,1556.47
803.336,1536.57
804.302,1578.13
805.268,1541.97
806.234,1538.53
807.200,1538.57
808.166,1506.90
809.131,1507.40
810.097,1526.50
811.062,1456.00
812.027,1518.53
812.994,1516.97
813.960,1501.83
814.925,1504.00
815.889,1504.83
816.854,1487.20
817.819,1484.80
818.783,1487.97
819.748,1493.23
820.712,1440.97
821.677,1470.63
822.641,1459.97
823.605,1501.13
824.571,1428.07
825.534,1503.00
826.498,1449.60
827.462,1488.97
828.425,1501.00
829.389,1458.37
830.352,1471.70
831.315,1480.83
832.279,1492.00
833.242,1483.37
834.204,1430.40
835.167,1438.27
836.132,1463.57
837.095,1443.23
838.057,1436.23
839.020,1451.43
839.982,1432.60
840.944,1464.63
841.906,1448.03
842.868,1484.77
843.830,1435.47
844.792,1401.73
845.753,1457.13
846.715,1455.23
847.679,1440.27
848.640,1420.67
849.601,1449.90
850.562,1409.47
851.523,1456.03
852.484,1466.63
853.445,1436.03
854.406,1449.67
855.367,1415.00
856.327,1442.37
857.288,1435.83
858.248,1462.13
859.210,1416.97
860.170,1432.27
861.130,1427.83
862.090,1432.07
863.050,1430.30
864.010,1427.37
864.969,1392.70
865.929,1415.33
866.888,1452.93
867.848,1429.57
868.807,1371.93
869.766,1420.13
870.727,1408.47
871.686,1365.60
872.645,1433.47
873.604,1421.83
874.562,1431.87
875.521,1384.77
876.479,1417.60
877.437,1403.70
878.396,1416.57
879.354,1449.93
880.312,1417.53
881.270,1401.13
882.229,1422.00
883.187,1449.50
884.145,1429.73
885.102,1404.17
886.059,1408.10
887.017,1438.03
887.974,1406.67
888.931,1424.47
889.888,1422.50
890.845,1413.20
891.802,1432.70
892.758,1421.17
893.717,1430.40
894.673,1403.90
895.630,1479.83
896.586,1429.00
897.542,1464.00
898.498,1438.03
899.454,1446.17
900.410,1438.93
901.366,1426.93
902.321,1476.00
903.277,1462.20
904.232,1446.40
905.189,1465.20
906.145,1444.67
907.100,1433.90
908.055,1464.73
909.010,1459.70
909.965,1450.87
910.919,1458.70
911.874,1464.30
912.828,1461.40
913.783,1434.13
914.737,1479.23
915.693,1448.83
916.648,1464.70
917.602,1452.17
918.555,1466.93
919.509,1483.00
920.463,1486.10
921.417,1457.00
922.370,1449.17
923.324,1472.07
924.277,1472.33
925.230,1487.17
926.183,1479.80
927.138,1524.40
928.091,1475.57
929.044,1453.47
929.996,1474.47
930.949,1481.73
931.902,1491.93
932.854,1476.30
933.806,1490.53
934.758,1493.97
935.711,1480.20
936.663,1526.00
937.614,1496.37
938.568,1503.23
939.520,1485.23
940.471,1527.87
941.423,1521.87
942.374,1453.77
943.326,1511.67
944.277,1466.43
945.228,1509.23
946.179,1486.97
947.130,1508.83
948.080,1490.17
949.031,1498.13
949.984,1442.63
950.934,1462.63
951.884,1506.83
952.835,1497.03
953.785,1513.83
954.735,1459.83
955.685,1457.63
956.635,1449.47
957.585,1491.57
958.534,1461.87
959.484,1448.53
960.433,1474.23
961.383,1484.83
962.334,1451.83
963.283,1453.40
964.232,1455.23
965.181,1441.97
966.130,1503.97
967.079,1411.23
968.027,1444.87
968.976,1439.80
969.924,1393.07
970.873,1447.30
971.821,1416.77
972.769,1440.67
973.719,1451.47
974.667,1448.80
975.615,1425.30
976.562,1464.90
977.510,1444.30
978.458,1471.40
979.405,1454.40
980.352,1477.43
981.300,1446.17
982.247,1411.47
983.194,1438.30
984.141,1415.20
985.088,1456.23
986.036,1389.00
986.983,1436.93
987.930,1434.20
988.876,1454.03
989.822,1424.30
990.769,1423.37
991.715,1416.43
992.661,1422.50
993.607,1393.43
994.553,1422.00
995.498,1405.13
996.444,1415.43
997.389,1421.73
998.337,1431.00
999.282,1449.27
1000.227,1417.83
1001.173,1424.43
1002.118,1440.07
1003.062,1410.30
1004.007,1465.47
1004.952,1414.17
1005.897,1391.77
1006.841,1422.77
1007.786,1408.43
1008.730,1431.47
1009.674,1410.17
1010.618,1430.17
1011.564,1401.60
1012.508,1442.07
1013.452,1412.80
1014.396,1415.17
1015.339,1406.83
1016.283,1425.83
1017.226,1412.40
1018.170,1412.70
1019.113,1435.03
1020.056,1443.70
1020.999,1418.77
1021.942,1453.70
1022.885,1377.70
1023.828,1442.67
1024.770,1455.80
1025.715,1425.63
1026.657,1425.17
1027.600,1446.13
1028.542,1458.00
1029.484,1473.13
1030.426,1450.70
1031.368,1450.23
1032.310,1440.27
1033.251,1461.93
1034.193,1463.20
1035.135,1473.80
1036.076,1466.93
1037.017,1450.13
1037.959,1469.17
1038.900,1453.90
1039.843,1460.77
1040.784,1457.70
1041.725,1474.80
1042.665,1464.27
1043.606,1443.20
1044.547,1442.30
1045.487,1471.03
1046.427,1474.97
1047.368,1487.57
1048.308,1510.23
1049.248,1481.40
1050.188,1519.00
1051.128,1517.70
1052.067,1499.27
1053.007,1491.20
1053.947,1540.40
1054.886,1488.23
1055.827,1553.73
1056.766,1508.00
1057.706,1521.97
1058.645,1515.67
1059.584,1514.87
1060.522,1480.97
1061.461,1524.97
1062.400,1602.37
1063.338,1532.87
1064.277,1534.07
1065.215,1554.43
1066.154,1575.80
1067.092,1567.60
1068.030,1612.00
1068.968,1587.50
1069.906,1596.03
1070.843,1573.23
1071.781,1610.47
1072.720,1590.57
1073.658,1576.50
1074.595,1628.03
1075.533,1564.50
1076.470,1583.83
1077.407,1602.10
1078.344,1631.87
1079.281,1649.70
1080.217,1655.17
1081.154,1631.37
1082.091,1614.10
1083.027,1622.70
1083.964,1621.53
1084.900,1589.33
1085.836,1606.27
1086.772,1599.40
1087.708,1606.20
1088.644,1632.03
1089.580,1652.07
1090.515,1628.73
1091.451,1583.03
1092.388,1593.63
1093.324,1667.70
1094.259,1587.80
1095.194,1657.10
1096.129,1590.73
1097.064,1593.83
1097.999,1609.27
1098.934,1571.23
1099.869,1581.27
1100.803,1588.57
1101.738,1516.23
1102.672,1548.37
1103.607,1569.53
1104.541,1548.67
1105.475,1545.27
1106.409,1530.70
1107.343,1552.47
1108.277,1481.87
1109.210,1511.10
1110.144,1501.80
1111.078,1509.13
1112.011,1478.73
1112.944,1513.20
1113.878,1474.80
1114.811,1470.63
1115.744,1461.10
1116.678,1477.57
1117.611,1441.77
1118.544,1418.20
1119.477,1446.90
1120.409,1447.87
1121.342,1431.67
1122.274,1468.93
1123.206,1379.27
1124.138,1392.90
1125.070,1370.97
1126.002,1353.77
1126.934,1435.17
1127.866,1360.43
1128.798,1357.50
1129.729,1376.40
1130.661,1353.23
1131.592,1378.30
1132.523,1333.57
1133.454,1311.97
1134.385,1291.43
1135.317,1321.43
1136.247,1324.57
1137.178,1282.23
1138.109,1294.53
1139.039,1315.73
1139.970,1293.93
1140.900,1287.63
1141.831,1284.73
1142.761,1291.03
1143.691,1262.43
1144.621,1256.73
1145.551,1237.57
1146.480,1287.77
1147.410,1298.50
1148.340,1258.67
1149.269,1242.67
1150.199,1228.00
1151.128,1264.43
1152.057,1259.43
1152.979,1279.13
1153.898,1226.47
1154.819,1267.13
1155.739,1230.70
1156.658,1191.50
1157.579,1209.63
1158.498,1200.13
1159.419,1192.00
1160.338,1209.47
1161.256,1169.67
1162.177,1246.20
1163.095,1202.13
1164.016,1182.57
1164.934,1200.40
1165.852,1182.03
1166.772,1196.87
1167.690,1203.87
1168.610,1187.00
1169.528,1173.77
1170.446,1177.83
1171.365,1166.00
1172.283,1177.90
1173.202,1168.37
1174.120,1201.43
1175.037,1179.33
1175.956,1179.77
1176.873,1109.03
1177.792,1163.27
1178.709,1142.40
1179.626,1139.60
1180.544,1172.43
1181.461,1155.20
1182.379,1152.27
1183.296,1123.17
1184.212,1138.13
1185.130,1140.60
1186.046,1129.03
1186.962,1139.83
1187.880,1143.07
1188.796,1149.87
1189.714,1102.10
1190.629,1148.47
1191.545,1116.13
1192.462,1110.80
1193.378,1125.30
1194.295,1141.33
1195.210,1087.83
1196.125,1119.67
1197.042,1137.57
1197.957,1124.37
1198.872,1127.23
1199.788,1079.00
1200.703,1102.30
1201.619,1100.63
1202.534,1113.13
1203.448,1104.27
1204.364,1109.37
1205.278,1083.87
1206.192,1093.17
1207.108,1079.03
1208.022,1138.87
1208.938,1137.73
1209.851,1082.53
1210.765,1102.13
1211.680,1114.73
1212.594,1112.43
1213.507,1086.80
1214.422,1137.07
1215.335,1098.03
1216.248,1126.77
1217.163,1086.93
1218.076,1092.13
1218.990,1084.23
1219.903,1102.57
1220.816,1105.97
1221.730,1115.33
1222.642,1117.30
1223.554,1064.67
1224.469,1059.50
1225.380,1118.10
1226.292,1129.87
1227.206,1117.87
1228.118,1132.30
1229.032,1100.23
1229.943,1092.17
1230.855,1100.23
1231.768,1097.30
1232.679,1085.57
1233.590,1123.63
1234.503,1134.37
1235.414,1090.27
1236.325,1130.43
1237.238,1109.63
1238.149,1095.97
1239.059,1115.00
1239.972,1160.43
1240.882,1097.10
1241.793,1125.43
1242.705,1142.13
1243.615,1078.33
1244.525,1074.97
1245.437,1127.23
1246.347,1145.20
1247.259,1132.33
1248.168,1140.33
1249.078,1083.53
1249.989,1110.93
1250.899,1131.30
1251.808,1143.70
1252.719,1144.63
1253.628,1115.73
1254.537,1110.20
1255.448,1125.73
1256.357,1106.23
1257.266,1105.57
1258.176,1115.13
1259.085,1128.67
1259.993,1124.53
1260.904,1118.43
1261.812,1115.67
1262.720,1127.03
1263.630,1140.60
1264.538,1155.23
1265.446,1143.90
1266.356,1101.53
1267.263,1111.93
1268.171,1149.87
1269.080,1140.33
1269.988,1132.20
1270.895,1110.60
1271.804,1126.20
1272.711,1090.20
1273.619,1173.23
1274.527,1113.37
1275.434,1146.90
1276.341,1130.63
1277.248,1141.10
1278.156,1115.43
1279.063,1116.47
1279.969,1142.67
1280.877,1118.43
1281.783,1129.93
1282.690,1118.07
1283.598,1102.20
1284.503,1133.60
1285.409,1144.23
1286.317,1095.60
1287.223,1097.30
1288.128,1100.20
1289.036,1111.93
1289.941,1096.63
1290.846,1125.93
1291.751,1148.33
1292.658,1088.23
1293.563,1088.80
1294.468,1109.00
1295.375,1094.77
1296.280,1056.90
1297.184,1071.83
1298.091,1114.60
1298.995,1092.87
1299.900,1075.33
1300.806,1084.97
1301.710,1056.00
1302.614,1102.07
1303.518,1072.80
1304.424,1075.33
1305.327,1070.80
1306.231,1064.67
1307.137,1029.47
1308.040,1078.97
1308.943,1045.47
1309.847,1101.10
1310.752,1103.23
1311.655,1032.93
1312.558,1044.73
1313.463,1034.37
1314.366,1005.60
1315.269,1014.10
1316.171,1033.43
1317.076,982.67
1317.978,986.93
1318.881,999.00
1319.785,1016.97
1320.687,1013.13
1321.589,1016.67
1322.491,988.83
