RamanScope Measure Spectrum Data V3.72

<< MEASURE CONDITION >>
Exposure Type,Aver
Exposure Time [sec],15
Exposure Count,4
Measure Time,2023/07/15 15:49:46
Data Name,""
Data Comment,""
Rayleigh Wave[nm],532.0

<< SAMPLE SPECTRUM >>
Wave[dcm-1],No154
146.591,849.00
147.626,946.00
148.664,1132.25
149.699,1303.75
150.737,1507.50
151.772,1644.00
152.809,1815.25
153.846,1915.25
154.881,2091.25
155.918,2213.00
156.953,2327.50
157.989,2393.75
159.026,2456.00
160.060,2510.75
161.096,2582.25
162.130,2599.50
163.167,2654.25
164.200,2704.50
165.236,2713.75
166.272,2769.00
167.305,2801.50
168.341,2891.50
169.374,2908.00
170.409,3007.00
171.445,3076.00
172.477,3119.00
173.512,3144.50
174.545,3170.75
175.580,3185.75
176.614,3175.50
177.647,3164.75
178.681,3155.50
179.713,3093.25
180.747,3090.00
181.781,3077.50
182.813,3025.75
183.847,3060.75
184.878,3030.00
185.912,3024.00
186.945,3006.50
187.976,3057.00
189.010,3055.25
190.043,3059.50
191.073,3105.25
192.106,3131.25
193.137,3073.50
194.170,3126.25
195.202,3183.75
196.232,3218.50
197.265,3225.75
198.297,3279.75
199.327,3346.00
200.359,3303.00
201.388,3406.50
202.420,3455.00
203.452,3566.75
204.481,3581.50
205.512,3623.75
206.544,3702.75
207.573,3737.50
208.604,3826.00
209.635,3911.50
210.663,4015.00
211.694,4049.00
212.725,4172.50
213.753,4229.00
214.783,4269.75
215.813,4414.50
216.841,4394.75
217.871,4470.00
218.899,4491.50
219.929,4547.50
220.959,4442.25
221.986,4425.00
223.016,4341.25
224.045,4353.00
225.072,4245.50
226.101,4226.25
227.130,4123.50
228.157,4031.00
229.185,3982.50
230.214,3898.50
231.241,3795.75
232.269,3797.75
233.297,3777.50
234.323,3714.75
235.351,3698.25
236.379,3699.00
237.407,3703.75
238.433,3672.25
239.460,3690.00
240.488,3721.00
241.513,3759.75
242.540,3783.75
243.568,3786.00
244.592,3887.25
245.619,3884.25
246.646,3885.75
247.671,3895.75
248.697,3840.50
249.724,3822.25
250.748,3868.25
251.774,3786.75
252.801,3756.25
253.827,3747.75
254.850,3796.75
255.876,3760.75
256.902,3800.00
257.925,3751.00
258.951,3751.25
259.976,3810.25
260.999,3833.75
262.024,3873.25
263.049,3908.50
264.074,3909.50
265.097,3978.75
266.122,3999.50
267.146,3967.25
268.168,4038.50
269.193,4133.50
270.217,4110.00
271.241,4095.25
272.263,4188.75
273.287,4225.75
274.311,4225.75
275.332,4242.50
276.356,4289.00
277.379,4299.00
278.402,4300.25
279.424,4264.25
280.447,4258.25
281.470,4224.50
282.492,4189.75
283.513,4159.75
284.536,4121.25
285.558,4090.00
286.581,4046.50
287.601,3949.50
288.623,3880.00
289.645,3897.00
290.665,3817.75
291.687,3785.50
292.709,3717.25
293.730,3628.75
294.750,3655.50
295.771,3609.75
296.792,3560.50
297.813,3494.25
298.832,3415.00
299.853,3449.75
300.874,3386.25
301.895,3315.50
302.913,3322.25
303.934,3313.50
304.954,3230.75
305.975,3241.00
306.993,3186.50
308.013,3176.50
309.033,3080.25
310.052,3097.75
311.072,3081.50
312.090,3086.75
313.109,3028.75
314.129,3047.00
315.148,3055.75
316.165,3032.50
317.184,2989.00
318.203,2950.00
319.222,2968.75
320.238,2957.50
321.257,2961.75
322.275,2852.25
323.294,2888.75
324.312,2835.75
325.328,2902.50
326.346,2820.00
327.364,2854.25
328.382,2852.75
329.397,2871.50
330.415,2846.50
331.432,2823.75
332.450,2805.00
333.467,2784.00
334.482,2799.50
335.499,2819.75
336.516,2804.50
337.533,2789.25
338.547,2823.50
339.564,2810.50
340.580,2797.50
341.597,2743.50
342.613,2727.00
343.627,2723.50
344.643,2716.75
345.659,2717.50
346.675,2755.25
347.690,2800.50
348.704,2790.75
349.719,2745.50
350.735,2719.50
351.750,2719.75
352.765,2695.75
353.778,2689.75
354.793,2731.25
355.808,2694.25
356.822,2645.00
357.837,2678.25
358.851,2740.75
359.864,2725.00
360.878,2737.50
361.892,2734.75
362.906,2719.75
363.920,2747.00
364.932,2771.25
365.945,2761.25
366.959,2813.00
367.972,2761.75
368.986,2746.75
369.999,2812.75
371.010,2812.75
372.023,2805.00
373.036,2800.75
374.049,2865.50
375.061,2866.50
376.072,2815.25
377.084,2820.75
378.097,2909.75
379.109,2863.50
380.121,2856.00
381.133,2860.00
382.143,2904.50
383.155,2873.75
384.166,2950.25
385.178,2896.50
386.189,2889.25
387.201,2883.50
388.212,2909.75
389.221,2871.75
390.232,2903.25
391.243,2884.00
392.254,2838.25
393.264,2846.00
394.275,2869.75
395.283,2871.00
396.294,2829.75
397.304,2836.25
398.314,2825.25
399.324,2829.75
400.334,2772.25
401.344,2774.00
402.351,2747.50
403.361,2793.50
404.370,2772.00
405.380,2757.50
406.389,2660.50
407.398,2697.50
408.407,2708.25
409.414,2743.25
410.423,2673.50
411.431,2676.00
412.440,2654.75
413.448,2622.75
414.457,2635.75
415.465,2670.50
416.471,2617.75
417.479,2590.00
418.487,2640.50
419.495,2652.50
420.503,2629.50
421.510,2573.75
422.518,2588.25
423.525,2615.25
424.530,2554.00
425.537,2589.00
426.544,2587.25
427.551,2518.50
428.558,2552.50
429.565,2508.75
430.571,2545.00
431.578,2532.00
432.582,2538.75
433.588,2569.75
434.595,2553.75
435.601,2538.75
436.607,2540.75
437.612,2453.50
438.618,2534.00
439.624,2562.00
440.627,2581.00
441.633,2591.25
442.638,2511.50
443.643,2537.50
444.648,2527.25
445.653,2516.00
446.658,2570.75
447.663,2536.50
448.667,2523.25
449.672,2542.75
450.674,2579.50
451.678,2533.00
452.682,2523.75
453.687,2596.00
454.690,2551.25
455.694,2601.25
456.698,2532.50
457.702,2581.00
458.705,2519.50
459.709,2583.75
460.710,2553.25
461.713,2586.25
462.716,2573.75
463.719,2548.25
464.722,2622.75
465.725,2606.25
466.727,2651.00
467.730,2591.75
468.732,2618.75
469.735,2590.25
470.737,2623.75
471.737,2587.50
472.739,2623.75
473.741,2617.50
474.742,2622.75
475.744,2624.25
476.746,2644.50
477.747,2668.00
478.748,2631.25
479.750,2654.25
480.751,2676.25
481.752,2625.25
482.753,2617.25
483.751,2656.75
484.752,2632.50
485.753,2641.00
486.753,2671.50
487.753,2666.25
488.754,2623.75
489.754,2594.25
490.754,2651.50
491.754,2648.75
492.754,2658.00
493.753,2625.75
494.753,2654.50
495.752,2676.25
496.752,2645.25
497.749,2592.25
498.748,2629.75
499.747,2567.50
500.746,2648.00
501.745,2613.25
502.744,2595.00
503.742,2629.25
504.741,2582.50
505.739,2585.25
506.737,2569.00
507.735,2560.25
508.734,2556.00
509.732,2566.50
510.729,2569.75
511.727,2571.50
512.725,2503.75
513.720,2590.50
514.718,2525.25
515.715,2530.25
516.712,2547.75
517.709,2541.25
518.706,2507.50
519.703,2454.25
520.700,2510.00
521.696,2463.75
522.693,2543.00
523.689,2538.75
524.686,2478.75
525.682,2525.50
526.678,2557.00
527.674,2526.25
528.670,2556.25
529.666,2500.50
530.661,2527.50
531.657,2957.25
532.652,2573.75
533.648,2554.00
534.641,2555.75
535.636,2539.50
536.631,2544.00
537.626,2587.00
538.621,2594.00
539.616,2550.25
540.610,2594.75
541.605,2537.75
542.599,2603.00
543.593,2610.25
544.587,2553.50
545.581,2646.00
546.575,2627.00
547.569,2577.50
548.563,2607.75
549.557,2601.75
550.550,2575.50
551.543,2556.75
552.537,2582.50
553.530,2600.25
554.523,2565.25
555.516,2618.50
556.509,2543.00
557.502,2566.50
558.494,2541.50
559.487,2609.25
560.479,2576.00
561.472,2563.50
562.464,2536.75
563.456,2524.00
564.448,2591.75
565.440,2579.50
566.432,2622.25
567.423,2598.75
568.415,2575.25
569.404,2607.75
570.396,2571.25
571.387,2595.75
572.378,2566.25
573.369,2632.00
574.360,2598.00
575.351,2674.75
576.341,2614.75
577.332,2598.50
578.323,2674.50
579.313,2649.50
580.303,2664.00
581.293,2598.50
582.283,2656.00
583.273,2626.50
584.263,2694.75
585.253,2694.00
586.243,2671.50
587.232,2646.50
588.222,2691.00
589.211,2684.75
590.200,2679.00
591.189,2703.25
592.178,2702.50
593.167,2760.25
594.156,2715.50
595.145,2705.75
596.133,2716.00
597.122,2740.75
598.110,2743.75
599.098,2720.50
600.086,2694.00
601.074,2744.50
602.062,2743.00
603.050,2752.00
604.038,2750.00
605.025,2783.00
606.013,2772.50
607.000,2700.00
607.987,2753.50
608.975,2761.75
609.962,2742.00
610.949,2714.50
611.936,2726.75
612.922,2694.00
613.909,2681.75
614.895,2682.75
615.882,2689.25
616.868,2681.25
617.854,2629.00
618.841,2639.75
619.826,2615.50
620.812,2592.00
621.798,2609.00
622.784,2552.25
623.769,2532.00
624.755,2500.50
625.740,2541.25
626.725,2490.50
627.711,2505.50
628.698,2444.75
629.683,2432.50
630.667,2404.00
631.652,2451.25
632.637,2417.50
633.621,2365.75
634.606,2353.25
635.590,2356.50
636.574,2323.50
637.558,2330.25
638.542,2403.25
639.526,2265.75
640.510,2305.00
641.493,2291.50
642.477,2277.25
643.460,2283.75
644.444,2215.00
645.427,2238.25
646.410,2184.75
647.393,2193.75
648.376,2212.75
649.359,2198.25
650.341,2177.50
651.324,2191.75
652.307,2144.25
653.289,2200.25
654.271,2165.75
655.253,2172.25
656.235,2152.50
657.217,2152.75
658.199,2122.50
659.181,2107.25
660.163,2102.25
661.144,2117.00
662.126,2082.50
663.107,2090.00
664.088,2069.25
665.069,2067.50
666.050,2049.50
667.033,2051.00
668.014,2061.75
668.995,2029.50
669.975,2006.25
670.956,2010.50
671.936,2018.25
672.916,1987.00
673.896,2006.75
674.876,2002.75
675.856,1921.75
676.836,1913.00
677.816,1946.00
678.795,1973.00
679.775,1970.25
680.754,1903.50
681.734,1902.25
682.713,1890.75
683.692,1925.75
684.671,1863.50
685.650,1860.25
686.629,1824.75
687.607,1840.50
688.586,1819.00
689.564,1842.75
690.543,1744.00
691.523,1828.00
692.501,1818.00
693.479,1812.50
694.457,1715.75
695.435,1799.50
696.413,1758.75
697.390,1742.75
698.368,1741.25
699.345,1770.00
700.322,1727.00
701.300,1691.75
702.277,1685.00
703.254,1663.00
704.231,1648.50
705.207,1683.50
706.184,1673.75
707.161,1665.25
708.137,1647.75
709.113,1649.75
710.090,1664.50
711.068,1658.00
712.044,1638.75
713.020,1632.00
713.996,1633.75
714.971,1623.25
715.947,1555.50
716.922,1666.75
717.898,1615.25
718.873,1594.75
719.848,1580.25
720.823,1593.50
721.798,1572.00
722.773,1570.50
723.748,1568.00
724.723,1544.00
725.697,1561.75
726.672,1550.50
727.646,1578.00
728.622,1566.25
729.596,1530.50
730.570,1538.75
731.544,1522.50
732.518,1574.25
733.492,1524.50
734.466,1477.00
735.439,1537.75
736.413,1537.75
737.386,1507.00
738.359,1485.50
739.332,1473.50
740.305,1453.00
741.278,1470.75
742.251,1504.75
743.224,1417.75
744.196,1483.00
745.171,1488.75
746.143,1461.75
747.115,1466.50
748.087,1452.25
749.059,1451.75
750.031,1494.25
751.003,1472.25
751.975,1495.75
752.947,1481.00
753.918,1430.75
754.890,1418.00
755.861,1425.50
756.832,1374.50
757.803,1414.50
758.774,1411.50
759.747,1432.25
760.718,1359.75
761.689,1383.50
762.659,1418.25
763.630,1387.25
764.600,1407.00
765.570,1409.00
766.540,1375.50
767.510,1365.25
768.480,1397.00
769.450,1404.75
770.420,1339.50
771.390,1346.50
772.359,1371.00
773.329,1388.75
774.300,1391.75
775.269,1333.75
776.238,1360.50
777.207,1340.25
778.176,1333.00
779.145,1322.00
780.114,1341.25
781.083,1308.50
782.051,1264.00
783.019,1307.25
783.988,1351.75
784.956,1359.75
785.924,1293.25
786.894,1300.50
787.862,1301.00
788.830,1319.25
789.797,1280.00
790.765,1341.00
791.732,1283.50
792.700,1255.50
793.667,1287.75
794.634,1297.00
795.601,1279.50
796.568,1281.75
797.535,1301.25
798.502,1239.25
799.468,1242.50
800.437,1257.25
801.403,1230.50
802.370,1285.00
803.336,1238.75
804.302,1200.25
805.268,1234.00
806.234,1239.25
807.200,1241.00
808.166,1230.75
809.131,1198.00
810.097,1247.25
811.062,1191.25
812.027,1224.00
812.994,1221.00
813.960,1238.25
814.925,1218.00
815.889,1213.00
816.854,1241.75
817.819,1197.75
818.783,1206.00
819.748,1168.75
820.712,1224.50
821.677,1210.75
822.641,1206.00
823.605,1165.50
824.571,1193.00
825.534,1237.50
826.498,1215.50
827.462,1248.75
828.425,1221.75
829.389,1180.50
830.352,1195.50
831.315,1212.75
832.279,1198.25
833.242,1177.50
834.204,1171.00
835.167,1189.00
836.132,1187.50
837.095,1192.00
838.057,1162.25
839.020,1182.50
839.982,1171.50
840.944,1209.50
841.906,1144.75
842.868,1205.00
843.830,1218.75
844.792,1108.25
845.753,1191.25
846.715,1212.25
847.679,1185.25
848.640,1214.75
849.601,1145.75
850.562,1179.75
851.523,1189.00
852.484,1175.00
853.445,1147.25
854.406,1255.50
855.367,1208.75
856.327,1212.00
857.288,1178.00
858.248,1186.25
859.210,1142.00
860.170,1183.50
861.130,1210.25
862.090,1180.25
863.050,1157.00
864.010,1148.75
864.969,1153.75
865.929,1172.25
866.888,1160.75
867.848,1196.50
868.807,1191.00
869.766,1123.00
870.727,1160.75
871.686,1159.25
872.645,1160.75
873.604,1197.50
874.562,1127.50
875.521,1145.25
876.479,1211.00
877.437,1110.25
878.396,1204.75
879.354,1176.25
880.312,1137.25
881.270,1157.25
882.229,1150.00
883.187,1161.25
884.145,1193.75
885.102,1136.75
886.059,1145.00
887.017,1128.25
887.974,1135.00
888.931,1175.75
889.888,1141.50
890.845,1105.75
891.802,1154.25
892.758,1170.50
893.717,1153.75
894.673,1180.50
895.630,1176.25
896.586,1160.00
897.542,1126.50
898.498,1156.75
899.454,1142.75
900.410,1152.00
901.366,1142.50
902.321,1092.50
903.277,1154.25
904.232,1147.75
905.189,1179.25
906.145,1131.75
907.100,1134.50
908.055,1182.00
909.010,1139.00
909.965,1200.50
910.919,1184.75
911.874,1178.50
912.828,1130.25
913.783,1143.75
914.737,1136.75
915.693,1150.00
916.648,1172.25
917.602,1107.50
918.555,1143.50
919.509,1174.00
920.463,1127.50
921.417,1169.00
922.370,1182.25
923.324,1111.25
924.277,1114.50
925.230,1153.25
926.183,1185.25
927.138,1162.75
928.091,1146.00
929.044,1151.00
929.996,1161.50
930.949,1135.00
931.902,1140.00
932.854,1167.50
933.806,1188.50
934.758,1180.25
935.711,1142.50
936.663,1210.25
937.614,1149.50
938.568,1130.25
939.520,1114.75
940.471,1131.25
941.423,1156.25
942.374,1130.25
943.326,1189.75
944.277,1205.75
945.228,1186.75
946.179,1176.50
947.130,1108.00
948.080,1161.25
949.031,1157.75
949.984,1154.75
950.934,1156.50
951.884,1167.25
952.835,1163.75
953.785,1125.00
954.735,1116.75
955.685,1163.25
956.635,1152.50
957.585,1109.75
958.534,1147.00
959.484,1144.00
960.433,1139.00
961.383,1132.50
962.334,1145.25
963.283,1096.75
964.232,1106.25
965.181,1104.50
966.130,1174.50
967.079,1138.00
968.027,1108.25
968.976,1114.75
969.924,1132.50
970.873,1135.25
971.821,1153.50
972.769,1152.25
973.719,1151.00
974.667,1092.50
975.615,1137.50
976.562,1134.25
977.510,1131.00
978.458,1121.75
979.405,1100.50
980.352,1151.50
981.300,1159.00
982.247,1144.50
983.194,1160.00
984.141,1128.00
985.088,1145.50
986.036,1131.25
986.983,1092.25
987.930,1176.25
988.876,1116.75
989.822,1128.75
990.769,1139.25
991.715,1117.50
992.661,1113.00
993.607,1163.75
994.553,1113.75
995.498,1134.00
996.444,1158.50
997.389,1133.25
998.337,1097.50
999.282,1175.00
1000.227,1193.50
1001.173,1114.50
1002.118,1117.75
1003.062,1158.50
1004.007,1137.00
1004.952,1108.25
1005.897,1106.50
1006.841,1137.00
1007.786,1159.75
1008.730,1084.00
1009.674,1199.75
1010.618,1155.00
1011.564,1127.75
1012.508,1178.00
1013.452,1146.25
1014.396,1182.00
1015.339,1119.50
1016.283,1126.25
1017.226,1158.25
1018.170,1160.25
1019.113,1175.25
1020.056,1164.75
1020.999,1129.00
1021.942,1148.25
1022.885,1103.25
1023.828,1130.00
1024.770,1137.25
1025.715,1183.50
1026.657,1135.50
1027.600,1199.75
1028.542,1166.25
1029.484,1197.00
1030.426,1188.75
1031.368,1200.50
1032.310,1176.00
1033.251,1166.00
1034.193,1177.50
1035.135,1175.25
1036.076,1209.50
1037.017,1138.75
1037.959,1186.25
1038.900,1245.50
1039.843,1221.00
1040.784,1170.50
1041.725,1225.25
1042.665,1168.75
1043.606,1169.25
1044.547,1220.75
1045.487,1196.50
1046.427,1190.00
1047.368,1214.75
1048.308,1214.25
1049.248,1222.50
1050.188,1248.25
1051.128,1227.50
1052.067,1241.75
1053.007,1225.25
1053.947,1207.75
1054.886,1213.25
1055.827,1202.75
1056.766,1187.75
1057.706,1246.25
1058.645,1233.50
1059.584,1210.75
1060.522,1216.00
1061.461,1259.75
1062.400,1248.75
1063.338,1241.00
1064.277,1250.75
1065.215,1254.00
1066.154,1221.75
1067.092,1229.00
1068.030,1276.25
1068.968,1264.25
1069.906,1236.00
1070.843,1268.00
1071.781,1256.50
1072.720,1294.50
1073.658,1220.75
1074.595,1258.50
1075.533,1263.75
1076.470,1296.50
1077.407,1271.25
1078.344,1304.00
1079.281,1302.75
1080.217,1323.00
1081.154,1284.75
1082.091,1246.25
1083.027,1293.25
1083.964,1300.75
1084.900,1286.00
1085.836,1305.00
1086.772,1257.75
1087.708,1321.25
1088.644,1316.00
1089.580,1307.50
1090.515,1305.75
1091.451,1263.75
1092.388,1272.75
1093.324,1276.25
1094.259,1282.25
1095.194,1292.75
1096.129,1276.25
1097.064,1249.50
1097.999,1289.25
1098.934,1298.00
1099.869,1277.00
1100.803,1197.50
1101.738,1233.50
1102.672,1276.25
1103.607,1253.50
1104.541,1212.75
1105.475,1252.50
1106.409,1257.75
1107.343,1246.50
1108.277,1233.50
1109.210,1176.75
1110.144,1226.75
1111.078,1202.25
1112.011,1204.25
1112.944,1199.75
1113.878,1173.00
1114.811,1208.50
1115.744,1184.00
1116.678,1231.75
1117.611,1172.75
1118.544,1124.25
1119.477,1161.50
1120.409,1189.25
1121.342,1170.50
1122.274,1101.00
1123.206,1131.25
1124.138,1163.00
1125.070,1070.00
1126.002,1172.50
1126.934,1135.50
1127.866,1102.75
1128.798,1111.50
1129.729,1123.25
1130.661,1088.75
1131.592,1101.50
1132.523,1069.00
1133.454,1044.50
1134.385,1077.75
1135.317,1083.25
1136.247,1098.75
1137.178,1143.25
1138.109,1081.75
1139.039,1076.25
1139.970,1065.50
1140.900,1053.00
1141.831,1052.00
1142.761,1036.00
1143.691,1074.25
1144.621,1021.50
1145.551,1022.50
1146.480,1058.00
1147.410,1082.50
1148.340,1084.50
1149.269,1050.50
1150.199,994.50
1151.128,1004.75
1152.057,1013.50
1152.979,1062.75
1153.898,1003.00
1154.819,1028.50
1155.739,1018.25
1156.658,1050.50
1157.579,1041.75
1158.498,984.50
1159.419,972.75
1160.338,1022.00
1161.256,991.75
1162.177,988.00
1163.095,1030.50
1164.016,974.25
1164.934,979.50
1165.852,1020.00
1166.772,988.50
1167.690,965.50
1168.610,1009.00
1169.528,996.50
1170.446,1020.50
1171.365,981.50
1172.283,1002.00
1173.202,952.50
1174.120,951.75
1175.037,945.50
1175.956,988.75
1176.873,972.75
1177.792,987.50
1178.709,937.00
1179.626,983.25
1180.544,983.75
1181.461,1009.00
1182.379,945.50
1183.296,976.75
1184.212,940.75
1185.130,951.00
1186.046,929.25
1186.962,986.50
1187.880,952.50
1188.796,999.75
1189.714,973.50
1190.629,917.00
1191.545,1005.25
1192.462,940.50
1193.378,936.00
1194.295,976.75
1195.210,988.50
1196.125,953.50
1197.042,972.50
1197.957,945.50
1198.872,949.75
1199.788,963.75
1200.703,1000.00
1201.619,998.25
1202.534,961.00
1203.448,1027.25
1204.364,925.25
1205.278,964.50
1206.192,982.00
1207.108,987.00
1208.022,939.00
1208.938,979.75
1209.851,970.50
1210.765,943.50
1211.680,957.50
1212.594,948.50
1213.507,1036.50
1214.422,944.25
1215.335,1005.50
1216.248,937.50
1217.163,983.00
1218.076,939.50
1218.990,995.00
1219.903,961.50
1220.816,964.00
1221.730,987.25
1222.642,952.25
1223.554,945.00
1224.469,995.50
1225.380,973.75
1226.292,962.25
1227.206,958.25
1228.118,961.25
1229.032,959.75
1229.943,1003.75
1230.855,1015.75
1231.768,989.50
1232.679,978.25
1233.590,1009.25
1234.503,1034.00
1235.414,979.75
1236.325,984.75
1237.238,963.25
1238.149,1014.25
1239.059,989.25
1239.972,1002.75
1240.882,1027.25
1241.793,1002.75
1242.705,1012.75
1243.615,1018.75
1244.525,989.00
1245.437,992.00
1246.347,1024.75
1247.259,1024.00
1248.168,1014.25
1249.078,1006.50
1249.989,1047.75
1250.899,994.00
1251.808,1016.75
1252.719,1007.00
1253.628,1028.25
1254.537,1022.75
1255.448,1007.75
1256.357,1010.00
1257.266,1014.75
1258.176,1007.00
1259.085,1031.75
1259.993,1043.50
1260.904,1033.75
1261.812,1021.50
1262.720,1027.25
1263.630,1009.00
1264.538,1029.25
1265.446,1038.00
1266.356,1025.25
1267.263,1051.75
1268.171,1022.50
1269.080,1009.00
1269.988,1049.75
1270.895,1021.75
1271.804,1048.00
1272.711,1045.50
1273.619,1002.25
1274.527,1047.75
1275.434,1104.00
1276.341,1024.00
1277.248,1031.50
1278.156,998.25
1279.063,1033.00
1279.969,1002.25
1280.877,1024.25
1281.783,994.75
1282.690,1041.75
1283.598,1031.50
1284.503,1004.25
1285.409,1024.00
1286.317,1072.50
1287.223,989.50
1288.128,995.50
1289.036,1016.25
1289.941,1015.75
1290.846,1019.50
1291.751,1052.75
1292.658,987.50
1293.563,962.25
1294.468,1045.25
1295.375,1000.50
1296.280,985.50
1297.184,999.50
1298.091,1014.50
1298.995,969.50
1299.900,974.50
1300.806,989.75
1301.710,1003.50
1302.614,970.25
1303.518,989.50
1304.424,971.75
1305.327,967.00
1306.231,1017.50
1307.137,974.00
1308.040,967.50
1308.943,949.00
1309.847,975.50
1310.752,969.50
1311.655,976.25
1312.558,976.25
1313.463,1016.50
1314.366,949.50
1315.269,875.75
1316.171,953.25
1317.076,921.75
1317.978,928.25
1318.881,944.25
1319.785,943.75
1320.687,943.75
1321.589,899.25
1322.491,922.25
1323.395,904.00
1324.297,938.75
1325.198,940.00
1326.102,912.00
1327.004,931.00
1327.905,900.50
1328.806,934.00
