RamanScope Measure Spectrum Data V3.72

<< MEASURE CONDITION >>
Exposure Type,Aver
Exposure Time [sec],15
Exposure Count,4
Measure Time,2023/07/15 16:32:05
Data Name,""
Data Comment,""
Rayleigh Wave[nm],532.0

<< SAMPLE SPECTRUM >>
Wave[dcm-1],No175
146.591,963.00
147.626,1152.75
148.664,1361.25
149.699,1526.00
150.737,1706.25
151.772,1889.75
152.809,2074.50
153.846,2241.75
154.881,2370.50
155.918,2499.00
156.953,2643.75
157.989,2706.50
159.026,2782.50
160.060,2813.75
161.096,2901.50
162.130,2963.75
163.167,3012.25
164.200,3043.25
165.236,3088.25
166.272,3106.00
167.305,3188.75
168.341,3239.00
169.374,3247.75
170.409,3313.00
171.445,3441.75
172.477,3469.25
173.512,3487.25
174.545,3533.50
175.580,3579.25
176.614,3518.50
177.647,3549.25
178.681,3581.75
179.713,3570.75
180.747,3514.25
181.781,3484.75
182.813,3522.50
183.847,3526.75
184.878,3554.25
185.912,3513.75
186.945,3603.25
187.976,3600.50
189.010,3607.00
190.043,3634.00
191.073,3693.75
192.106,3709.00
193.137,3730.25
194.170,3798.25
195.202,3875.25
196.232,3856.75
197.265,3938.50
198.297,4000.00
199.327,4078.00
200.359,4119.00
201.388,4199.75
202.420,4309.50
203.452,4395.75
204.481,4446.50
205.512,4595.25
206.544,4699.50
207.573,4808.25
208.604,4947.25
209.635,5088.25
210.663,5167.00
211.694,5337.00
212.725,5448.00
213.753,5531.00
214.783,5636.00
215.813,5676.50
216.841,5693.75
217.871,5676.00
218.899,5656.75
219.929,5661.00
220.959,5527.25
221.986,5415.50
223.016,5304.50
224.045,5185.25
225.072,5146.50
226.101,5068.50
227.130,4905.50
228.157,4828.00
229.185,4774.75
230.214,4707.50
231.241,4673.25
232.269,4578.25
233.297,4576.25
234.323,4564.50
235.351,4506.50
236.379,4546.75
237.407,4437.50
238.433,4469.50
239.460,4579.75
240.488,4581.50
241.513,4573.00
242.540,4641.50
243.568,4632.50
244.592,4707.25
245.619,4753.50
246.646,4725.25
247.671,4703.25
248.697,4685.50
249.724,4665.50
250.748,4619.75
251.774,4617.00
252.801,4607.00
253.827,4613.75
254.850,4611.25
255.876,4675.00
256.902,4686.50
257.925,4709.50
258.951,4702.25
259.976,4814.00
260.999,4806.00
262.024,4830.00
263.049,4868.50
264.074,4876.50
265.097,4955.25
266.122,4994.50
267.146,5057.50
268.168,5109.25
269.193,5127.50
270.217,5160.75
271.241,5263.75
272.263,5268.25
273.287,5246.00
274.311,5313.25
275.332,5337.25
276.356,5383.25
277.379,5288.75
278.402,5315.25
279.424,5304.00
280.447,5245.00
281.470,5138.75
282.492,5114.50
283.513,5038.50
284.536,4995.50
285.558,4939.50
286.581,4845.50
287.601,4765.50
288.623,4697.00
289.645,4664.00
290.665,4610.25
291.687,4549.50
292.709,4455.50
293.730,4391.00
294.750,4390.50
295.771,4342.75
296.792,4329.75
297.813,4170.25
298.832,4171.25
299.853,4123.50
300.874,4052.00
301.895,4027.00
302.913,3979.25
303.934,3936.75
304.954,3874.00
305.975,3913.75
306.993,3849.00
308.013,3827.50
309.033,3806.25
310.052,3738.50
311.072,3746.00
312.090,3696.75
313.109,3661.00
314.129,3661.00
315.148,3696.25
316.165,3671.75
317.184,3604.00
318.203,3574.25
319.222,3553.75
320.238,3514.50
321.257,3550.50
322.275,3525.50
323.294,3488.75
324.312,3473.75
325.328,3450.50
326.346,3431.75
327.364,3455.75
328.382,3426.75
329.397,3431.00
330.415,3403.25
331.432,3428.00
332.450,3415.00
333.467,3390.75
334.482,3398.25
335.499,3373.50
336.516,3346.75
337.533,3388.50
338.547,3372.50
339.564,3366.25
340.580,3370.75
341.597,3381.75
342.613,3375.75
343.627,3326.00
344.643,3292.50
345.659,3324.25
346.675,3337.50
347.690,3345.00
348.704,3347.00
349.719,3327.75
350.735,3268.00
351.750,3313.25
352.765,3355.50
353.778,3275.75
354.793,3307.25
355.808,3285.25
356.822,3333.25
357.837,3293.25
358.851,3340.00
359.864,3310.00
360.878,3321.75
361.892,3357.25
362.906,3308.00
363.920,3375.75
364.932,3313.00
365.945,3340.75
366.959,3355.50
367.972,3352.75
368.986,3367.25
369.999,3344.00
371.010,3358.50
372.023,3358.25
373.036,3387.00
374.049,3421.50
375.061,3423.50
376.072,3411.50
377.084,3400.25
378.097,3467.50
379.109,3504.75
380.121,3464.50
381.133,3408.25
382.143,3497.00
383.155,3480.25
384.166,3466.25
385.178,3402.50
386.189,3446.00
387.201,3482.50
388.212,3378.00
389.221,3412.25
390.232,3467.50
391.243,3443.25
392.254,3382.25
393.264,3406.25
394.275,3373.00
395.283,3338.25
396.294,3360.75
397.304,3346.25
398.314,3360.25
399.324,3382.75
400.334,3362.75
401.344,3318.75
402.351,3317.00
403.361,3300.25
404.370,3243.00
405.380,3261.50
406.389,3224.00
407.398,3273.00
408.407,3260.75
409.414,3766.75
410.423,3168.50
411.431,3186.25
412.440,3190.25
413.448,3187.00
414.457,3220.00
415.465,3095.75
416.471,3116.25
417.479,3078.25
418.487,3120.00
419.495,3107.75
420.503,3078.00
421.510,3075.25
422.518,3100.00
423.525,3118.25
424.530,3067.50
425.537,3088.75
426.544,3093.00
427.551,2995.50
428.558,3005.00
429.565,3086.00
430.571,3057.00
431.578,3035.00
432.582,3058.00
433.588,3027.25
434.595,3041.25
435.601,3040.50
436.607,3037.00
437.612,3021.50
438.618,3056.00
439.624,3075.00
440.627,3084.75
441.633,3013.25
442.638,3055.25
443.643,3045.25
444.648,3045.00
445.653,3045.25
446.658,3052.00
447.663,3038.00
448.667,3006.00
449.672,3098.50
450.674,3068.25
451.678,3045.50
452.682,3011.50
453.687,3010.25
454.690,3033.50
455.694,3141.00
456.698,3094.75
457.702,3077.50
458.705,3066.75
459.709,3077.00
460.710,3058.50
461.713,3079.75
462.716,3122.50
463.719,3062.00
464.722,3096.25
465.725,3079.25
466.727,3118.25
467.730,3118.50
468.732,3097.50
469.735,3137.75
470.737,3079.75
471.737,3102.50
472.739,3115.75
473.741,3112.25
474.742,3091.00
475.744,3168.00
476.746,3157.75
477.747,3115.00
478.748,3101.25
479.750,3088.75
480.751,3152.50
481.752,3113.00
482.753,3114.75
483.751,3169.25
484.752,3070.00
485.753,3095.25
486.753,3126.50
487.753,3184.50
488.754,3113.75
489.754,3061.25
490.754,3105.75
491.754,3129.50
492.754,3092.75
493.753,3111.75
494.753,3084.25
495.752,3109.50
496.752,3123.75
497.749,3111.00
498.748,3096.25
499.747,3075.25
500.746,3119.50
501.745,3106.00
502.744,3100.25
503.742,3070.25
504.741,3098.25
505.739,3025.25
506.737,3078.25
507.735,3044.50
508.734,3031.00
509.732,2992.75
510.729,3003.75
511.727,2993.00
512.725,3004.25
513.720,2970.50
514.718,2949.25
515.715,2940.00
516.712,2912.50
517.709,2908.00
518.706,2946.75
519.703,2950.25
520.700,2970.50
521.696,2986.50
522.693,2965.75
523.689,2976.25
524.686,2975.75
525.682,2980.75
526.678,2997.75
527.674,2968.00
528.670,3042.50
529.666,3010.00
530.661,3022.25
531.657,3002.75
532.652,3031.50
533.648,3057.25
534.641,2971.50
535.636,2981.25
536.631,2949.75
537.626,3066.25
538.621,3036.75
539.616,3078.50
540.610,2996.25
541.605,3005.75
542.599,3069.50
543.593,3020.00
544.587,2998.50
545.581,3025.00
546.575,3040.50
547.569,3014.25
548.563,2996.25
549.557,3013.25
550.550,3028.50
551.543,3021.00
552.537,3013.75
553.530,3088.00
554.523,3028.00
555.516,2952.50
556.509,3037.75
557.502,3010.50
558.494,3021.25
559.487,3015.75
560.479,3019.25
561.472,3085.50
562.464,3024.00
563.456,3070.00
564.448,3045.00
565.440,3012.75
566.432,3021.75
567.423,3083.50
568.415,3049.25
569.404,3031.75
570.396,3086.50
571.387,3087.75
572.378,3095.50
573.369,3042.75
574.360,3136.00
575.351,3093.50
576.341,3142.25
577.332,3148.25
578.323,3107.00
579.313,3141.25
580.303,3077.25
581.293,3096.25
582.283,3178.25
583.273,3125.50
584.263,3165.00
585.253,3157.00
586.243,3171.00
587.232,3111.00
588.222,3153.00
589.211,3133.50
590.200,3224.75
591.189,3183.25
592.178,3159.50
593.167,3178.00
594.156,3179.50
595.145,3222.00
596.133,3232.25
597.122,3178.50
598.110,3152.75
599.098,3128.75
600.086,3151.50
601.074,3161.00
602.062,3187.00
603.050,3191.50
604.038,3146.25
605.025,3130.75
606.013,3139.25
607.000,3095.50
607.987,3139.75
608.975,3102.75
609.962,3084.50
610.949,3104.25
611.936,3117.75
612.922,3034.50
613.909,3024.75
614.895,3097.50
615.882,3041.75
616.868,3044.75
617.854,3040.50
618.841,2943.25
619.826,2939.25
620.812,2909.75
621.798,2920.75
622.784,2884.50
623.769,2870.00
624.755,2838.25
625.740,2814.00
626.725,2858.00
627.711,2837.25
628.698,2793.25
629.683,2805.25
630.667,2761.50
631.652,2728.75
632.637,2710.50
633.621,2735.25
634.606,2726.75
635.590,2704.75
636.574,2667.00
637.558,2693.25
638.542,2667.00
639.526,2588.00
640.510,2597.50
641.493,2595.25
642.477,2612.00
643.460,2563.75
644.444,2544.50
645.427,2534.75
646.410,2572.00
647.393,2542.00
648.376,2542.25
649.359,2514.75
650.341,2504.00
651.324,2514.25
652.307,2490.50
653.289,2480.75
654.271,2476.00
655.253,2471.50
656.235,2417.00
657.217,2448.50
658.199,2481.25
659.181,2475.75
660.163,2423.75
661.144,2415.25
662.126,2398.50
663.107,2405.25
664.088,2442.75
665.069,2442.00
666.050,2416.50
667.033,2380.75
668.014,2377.75
668.995,2341.00
669.975,2357.50
670.956,2341.25
671.936,2368.00
672.916,2323.75
673.896,2318.00
674.876,2318.50
675.856,2296.00
676.836,2281.50
677.816,2239.25
678.795,2237.00
679.775,2226.50
680.754,2221.75
681.734,2249.50
682.713,2167.75
683.692,2196.50
684.671,2188.25
685.650,2186.00
686.629,2178.50
687.607,2139.00
688.586,2100.75
689.564,2125.00
690.543,2078.50
691.523,2056.50
692.501,2032.75
693.479,2057.00
694.457,2085.50
695.435,2051.00
696.413,2095.50
697.390,2020.75
698.368,1999.00
699.345,2074.00
700.322,2031.25
701.300,2027.50
702.277,1977.75
703.254,1989.75
704.231,2028.50
705.207,1983.00
706.184,1989.75
707.161,1932.25
708.137,1952.00
709.113,1928.50
710.090,1924.75
711.068,1909.50
712.044,1925.00
713.020,1928.50
713.996,1900.50
714.971,1867.00
715.947,1916.00
716.922,1848.75
717.898,1886.00
718.873,1861.50
719.848,1910.25
720.823,1889.50
721.798,1941.75
722.773,1824.25
723.748,1863.50
724.723,1833.50
725.697,1799.25
726.672,1840.75
727.646,1829.25
728.622,1785.75
729.596,1791.25
730.570,1804.00
731.544,1827.00
732.518,1825.75
733.492,1768.00
734.466,1852.25
735.439,1762.75
736.413,1836.50
737.386,1822.75
738.359,1766.25
739.332,1795.50
740.305,1789.75
741.278,1740.50
742.251,1746.50
743.224,1764.75
744.196,1771.75
745.171,1731.00
746.143,1763.00
747.115,1732.50
748.087,1746.50
749.059,1738.50
750.031,1747.25
751.003,1692.75
751.975,1657.75
752.947,1751.00
753.918,1668.50
754.890,1700.25
755.861,1721.00
756.832,1648.75
757.803,1712.75
758.774,1674.25
759.747,1718.00
760.718,1666.75
761.689,1623.00
762.659,1608.75
763.630,1633.75
764.600,1682.25
765.570,1661.25
766.540,1701.25
767.510,1649.00
768.480,1679.50
769.450,1685.75
770.420,1591.00
771.390,1561.00
772.359,1615.75
773.329,1602.50
774.300,1607.75
775.269,1626.50
776.238,1614.75
777.207,1626.25
778.176,1601.50
779.145,1577.00
780.114,1601.25
781.083,1616.75
782.051,1551.75
783.019,1577.00
783.988,1606.25
784.956,1539.50
785.924,1549.00
786.894,1530.50
787.862,1537.75
788.830,1569.75
789.797,1522.75
790.765,1536.00
791.732,1519.75
792.700,1535.25
793.667,1533.25
794.634,1474.75
795.601,1511.25
796.568,1530.50
797.535,1496.25
798.502,1493.00
799.468,1499.00
800.437,1524.00
801.403,1494.75
802.370,1490.00
803.336,1502.50
804.302,1497.50
805.268,1452.75
806.234,1476.25
807.200,1461.50
808.166,1469.00
809.131,1461.25
810.097,1492.00
811.062,1445.50
812.027,1400.50
812.994,1438.75
813.960,1445.75
814.925,1444.50
815.889,1449.50
816.854,1469.00
817.819,1430.25
818.783,1459.25
819.748,1443.75
820.712,1477.75
821.677,1398.50
822.641,1438.25
823.605,1407.75
824.571,1386.50
825.534,1402.00
826.498,1419.25
827.462,1450.00
828.425,1395.00
829.389,1391.50
830.352,1433.25
831.315,1437.00
832.279,1427.50
833.242,1411.50
834.204,1372.50
835.167,1455.00
836.132,1414.00
837.095,1389.75
838.057,1422.25
839.020,1393.50
839.982,1376.25
840.944,1367.75
841.906,1397.75
842.868,1385.00
843.830,1371.50
844.792,1371.00
845.753,1411.00
846.715,1406.25
847.679,1403.25
848.640,1341.50
849.601,1403.75
850.562,1399.50
851.523,1377.50
852.484,1361.75
853.445,1370.50
854.406,1348.25
855.367,1397.75
856.327,1373.50
857.288,1438.25
858.248,1363.25
859.210,1378.00
860.170,1362.75
861.130,1361.50
862.090,1359.25
863.050,1376.25
864.010,1330.25
864.969,1346.00
865.929,1324.50
866.888,1412.75
867.848,1361.00
868.807,1410.50
869.766,1328.75
870.727,1349.75
871.686,1358.75
872.645,1394.25
873.604,1284.50
874.562,1367.75
875.521,1386.25
876.479,1344.75
877.437,1360.75
878.396,1333.50
879.354,1370.00
880.312,1314.75
881.270,1370.75
882.229,1338.25
883.187,1362.25
884.145,1375.50
885.102,1371.25
886.059,1353.00
887.017,1380.75
887.974,1334.50
888.931,1342.50
889.888,1330.75
890.845,1360.75
891.802,1354.50
892.758,1339.25
893.717,1372.50
894.673,1359.25
895.630,1383.50
896.586,1329.25
897.542,1380.25
898.498,1359.25
899.454,1367.00
900.410,1382.00
901.366,1365.00
902.321,1302.00
903.277,1373.00
904.232,1325.75
905.189,1372.75
906.145,1342.75
907.100,1384.00
908.055,1346.25
909.010,1346.00
909.965,1346.00
910.919,1430.50
911.874,1325.50
912.828,1333.00
913.783,1364.25
914.737,1354.25
915.693,1336.50
916.648,1368.00
917.602,1341.75
918.555,1366.75
919.509,1338.50
920.463,1416.50
921.417,1390.00
922.370,1375.75
923.324,1368.00
924.277,1328.00
925.230,1329.25
926.183,1348.00
927.138,1358.00
928.091,1374.50
929.044,1344.75
929.996,1368.25
930.949,1401.50
931.902,1333.50
932.854,1356.25
933.806,1360.00
934.758,1328.00
935.711,1388.25
936.663,1338.00
937.614,1365.75
938.568,1341.50
939.520,1359.50
940.471,1349.75
941.423,1364.25
942.374,1345.75
943.326,1340.25
944.277,1320.25
945.228,1334.25
946.179,1362.50
947.130,1363.25
948.080,1373.25
949.031,1321.75
949.984,1321.25
950.934,1323.25
951.884,1353.25
952.835,1341.00
953.785,1370.00
954.735,1312.25
955.685,1321.00
956.635,1326.75
957.585,1315.75
958.534,1331.50
959.484,1357.00
960.433,1376.25
961.383,1320.25
962.334,1296.00
963.283,1310.25
964.232,1317.50
965.181,1282.75
966.130,1330.00
967.079,1303.75
968.027,1301.50
968.976,1339.75
969.924,1325.25
970.873,1316.75
971.821,1312.00
972.769,1299.00
973.719,1330.50
974.667,1296.25
975.615,1336.75
976.562,1318.50
977.510,1316.25
978.458,1333.50
979.405,1313.00
980.352,1351.00
981.300,1333.75
982.247,1336.00
983.194,1302.50
984.141,1319.50
985.088,1301.25
986.036,1293.00
986.983,1297.25
987.930,1297.25
988.876,1344.75
989.822,1322.25
990.769,1300.50
991.715,1278.25
992.661,1289.00
993.607,1295.75
994.553,1298.00
995.498,1310.50
996.444,1287.25
997.389,1319.50
998.337,1346.75
999.282,1316.50
1000.227,1287.50
1001.173,1298.00
1002.118,1297.50
1003.062,1310.00
1004.007,1306.00
1004.952,1310.75
1005.897,1321.50
1006.841,1278.50
1007.786,1282.75
1008.730,1301.25
1009.674,1323.00
1010.618,1308.00
1011.564,1295.50
1012.508,1304.75
1013.452,1302.75
1014.396,1312.50
1015.339,1298.50
1016.283,1283.25
1017.226,1303.75
1018.170,1294.50
1019.113,1302.75
1020.056,1351.50
1020.999,1282.00
1021.942,1292.00
1022.885,1348.00
1023.828,1292.00
1024.770,1319.50
1025.715,1332.50
1026.657,1347.00
1027.600,1298.50
1028.542,1362.75
1029.484,1331.50
1030.426,1332.00
1031.368,1324.50
1032.310,1318.75
1033.251,1323.00
1034.193,1301.50
1035.135,1320.25
1036.076,1337.25
1037.017,1333.25
1037.959,1331.75
1038.900,1330.75
1039.843,1345.00
1040.784,1322.00
1041.725,1337.75
1042.665,1317.75
1043.606,1288.00
1044.547,1350.75
1045.487,1326.75
1046.427,1381.00
1047.368,1391.25
1048.308,1383.25
1049.248,1355.00
1050.188,1366.75
1051.128,1362.75
1052.067,1338.75
1053.007,1426.75
1053.947,1390.25
1054.886,1361.75
1055.827,1365.00
1056.766,1427.75
1057.706,1364.25
1058.645,1360.75
1059.584,1397.50
1060.522,1441.00
1061.461,1423.50
1062.400,1404.25
1063.338,1409.00
1064.277,1446.50
1065.215,1402.00
1066.154,1447.75
1067.092,1405.00
1068.030,1426.25
1068.968,1415.00
1069.906,1432.50
1070.843,1463.00
1071.781,1436.25
1072.720,1441.00
1073.658,1446.75
1074.595,1417.50
1075.533,1479.25
1076.470,1396.00
1077.407,1433.75
1078.344,1471.00
1079.281,1442.50
1080.217,1399.00
1081.154,1469.25
1082.091,1465.75
1083.027,1421.50
1083.964,1483.25
1084.900,1425.75
1085.836,1411.25
1086.772,1436.75
1087.708,1443.75
1088.644,1453.75
1089.580,1489.00
1090.515,1444.75
1091.451,1414.00
1092.388,1470.00
1093.324,1440.25
1094.259,1435.00
1095.194,1468.25
1096.129,1450.25
1097.064,1454.25
1097.999,1439.75
1098.934,1427.50
1099.869,1430.25
1100.803,1415.50
1101.738,1406.00
1102.672,1405.75
1103.607,1401.50
1104.541,1373.75
1105.475,1384.50
1106.409,1396.00
1107.343,1357.00
1108.277,1368.75
1109.210,1365.75
1110.144,1348.25
1111.078,1347.50
1112.011,1350.00
1112.944,1346.75
1113.878,1361.75
1114.811,1362.00
1115.744,1338.25
1116.678,1331.50
1117.611,1376.00
1118.544,1280.00
1119.477,1325.75
1120.409,1270.25
1121.342,1308.25
1122.274,1271.25
1123.206,1315.50
1124.138,1295.25
1125.070,1271.25
1126.002,1339.75
1126.934,1294.75
1127.866,1302.50
1128.798,1254.25
1129.729,1307.25
1130.661,1280.00
1131.592,1292.00
1132.523,1235.50
1133.454,1259.25
1134.385,1239.50
1135.317,1243.50
1136.247,1219.00
1137.178,1263.25
1138.109,1216.00
1139.039,1283.75
1139.970,1222.75
1140.900,1235.50
1141.831,1221.75
1142.761,1215.00
1143.691,1212.25
1144.621,1257.00
1145.551,1212.25
1146.480,1184.75
1147.410,1196.75
1148.340,1201.00
1149.269,1186.50
1150.199,1177.50
1151.128,1198.00
1152.057,1203.25
1152.979,1186.25
1153.898,1209.00
1154.819,1192.25
1155.739,1183.75
1156.658,1170.25
1157.579,1175.75
1158.498,1134.25
1159.419,1177.75
1160.338,1202.00
1161.256,1165.25
1162.177,1194.00
1163.095,1177.75
1164.016,1173.75
1164.934,1174.25
1165.852,1186.75
1166.772,1143.50
1167.690,1126.25
1168.610,1151.00
1169.528,1152.75
1170.446,1107.00
1171.365,1140.00
1172.283,1135.25
1173.202,1144.50
1174.120,1126.00
1175.037,1128.50
1175.956,1083.75
1176.873,1109.00
1177.792,1130.25
1178.709,1093.50
1179.626,1152.75
1180.544,1144.00
1181.461,1095.75
1182.379,1101.00
1183.296,1095.50
1184.212,1142.00
1185.130,1133.00
1186.046,1120.25
1186.962,1092.25
1187.880,1175.25
1188.796,1149.50
1189.714,1114.25
1190.629,1138.00
1191.545,1128.50
1192.462,1108.50
1193.378,1100.50
1194.295,1086.50
1195.210,1118.75
1196.125,1103.50
1197.042,1105.50
1197.957,1097.75
1198.872,1098.75
1199.788,1120.50
1200.703,1124.00
1201.619,1111.25
1202.534,1087.25
1203.448,1123.00
1204.364,1112.50
1205.278,1115.25
1206.192,1100.00
1207.108,1112.00
1208.022,1125.25
1208.938,1084.25
1209.851,1091.25
1210.765,1125.50
1211.680,1122.25
1212.594,1112.00
1213.507,1156.00
1214.422,1093.25
1215.335,1133.50
1216.248,1104.50
1217.163,1116.75
1218.076,1078.25
1218.990,1099.00
1219.903,1107.25
1220.816,1098.50
1221.730,1095.75
1222.642,1140.75
1223.554,1107.50
1224.469,1092.00
1225.380,1136.50
1226.292,1113.00
1227.206,1132.00
1228.118,1149.25
1229.032,1143.50
1229.943,1097.50
1230.855,1129.50
1231.768,1100.25
1232.679,1123.25
1233.590,1112.00
1234.503,1134.50
1235.414,1151.75
1236.325,1112.00
1237.238,1153.25
1238.149,1127.75
1239.059,1146.50
1239.972,1086.00
1240.882,1151.50
1241.793,1152.00
1242.705,1103.25
1243.615,1143.00
1244.525,1115.25
1245.437,1133.50
1246.347,1121.50
1247.259,1102.75
1248.168,1132.00
1249.078,1127.00
1249.989,1126.75
1250.899,1108.25
1251.808,1077.50
1252.719,1161.75
1253.628,1166.25
1254.537,1144.75
1255.448,1100.00
1256.357,1165.25
1257.266,1152.75
1258.176,1127.75
1259.085,1160.25
1259.993,1116.50
1260.904,1171.00
1261.812,1114.25
1262.720,1109.50
1263.630,1077.50
1264.538,1112.25
1265.446,1130.25
1266.356,1159.50
1267.263,1142.50
1268.171,1103.75
1269.080,1106.00
1269.988,1114.25
1270.895,1115.75
1271.804,1137.50
1272.711,1144.00
1273.619,1119.50
1274.527,1162.00
1275.434,1157.75
1276.341,1144.25
1277.248,1146.75
1278.156,1167.75
1279.063,1121.50
1279.969,1101.00
1280.877,1096.50
1281.783,1134.25
1282.690,1101.00
1283.598,1132.50
1284.503,1162.00
1285.409,1117.50
1286.317,1084.00
1287.223,1132.25
1288.128,1091.25
1289.036,1151.50
1289.941,1076.25
1290.846,1110.50
1291.751,1119.50
1292.658,1056.00
1293.563,1130.25
1294.468,1151.00
1295.375,1142.50
1296.280,1098.75
1297.184,1050.00
1298.091,1107.75
1298.995,1066.50
1299.900,1068.75
1300.806,1054.50
1301.710,1087.50
1302.614,1086.75
1303.518,1122.00
1304.424,1107.75
1305.327,1096.75
1306.231,1081.50
1307.137,1085.75
1308.040,1072.75
1308.943,1061.50
1309.847,1054.00
1310.752,1048.00
1311.655,1042.00
1312.558,1050.75
1313.463,1063.50
1314.366,1026.50
1315.269,1059.25
1316.171,1039.25
1317.076,1032.00
1317.978,1012.25
1318.881,1004.00
1319.785,1032.00
1320.687,1030.50
1321.589,1037.50
1322.491,1006.75
