RamanScope Measure Spectrum Data V3.72

<< MEASURE CONDITION >>
Exposure Type,Aver
Exposure Time [sec],15
Exposure Count,4
Measure Time,2023/07/15 16:45:29
Data Name,""
Data Comment,""
Rayleigh Wave[nm],532.0

<< SAMPLE SPECTRUM >>
Wave[dcm-1],No185
146.591,1167.00
147.626,1370.00
148.664,1648.50
149.699,1848.75
150.737,2051.75
151.772,2266.50
152.809,2486.00
153.846,2694.00
154.881,2864.00
155.918,3028.25
156.953,3137.75
157.989,3236.25
159.026,3389.75
160.060,3436.50
161.096,3453.00
162.130,3582.00
163.167,3604.00
164.200,3645.50
165.236,3765.25
166.272,3836.75
167.305,3867.75
168.341,3906.50
169.374,4016.25
170.409,4040.50
171.445,4136.00
172.477,4190.25
173.512,4224.50
174.545,4208.50
175.580,4268.50
176.614,4303.25
177.647,4269.00
178.681,4263.50
179.713,4311.75
180.747,4280.50
181.781,4212.25
182.813,4216.50
183.847,4194.75
184.878,4220.00
185.912,4167.50
186.945,4170.75
187.976,4253.50
189.010,4209.00
190.043,4277.75
191.073,4276.75
192.106,4331.25
193.137,4334.50
194.170,4380.25
195.202,4350.00
196.232,4420.00
197.265,4457.25
198.297,4471.75
199.327,4575.50
200.359,4601.25
201.388,4608.25
202.420,4639.75
203.452,4737.25
204.481,4805.25
205.512,4814.50
206.544,4842.75
207.573,4898.50
208.604,4950.00
209.635,5070.50
210.663,5085.50
211.694,5142.00
212.725,5159.75
213.753,5258.50
214.783,5246.50
215.813,5272.00
216.841,5261.25
217.871,5308.75
218.899,5292.50
219.929,5283.50
220.959,5250.25
221.986,5215.50
223.016,5161.25
224.045,5164.00
225.072,5117.00
226.101,5127.00
227.130,5021.75
228.157,4964.75
229.185,4901.75
230.214,4925.50
231.241,4900.75
232.269,4923.50
233.297,4881.00
234.323,4902.75
235.351,4881.00
236.379,4842.00
237.407,4914.25
238.433,4879.75
239.460,4932.00
240.488,4906.25
241.513,5031.75
242.540,5042.75
243.568,5045.00
244.592,5068.75
245.619,5172.75
246.646,5093.75
247.671,5002.25
248.697,5070.50
249.724,5056.25
250.748,4984.25
251.774,4984.50
252.801,4928.50
253.827,5051.50
254.850,5011.25
255.876,5036.00
256.902,5038.25
257.925,4963.25
258.951,5051.00
259.976,5044.50
260.999,5007.25
262.024,5066.00
263.049,5057.75
264.074,5122.50
265.097,5087.50
266.122,5129.00
267.146,5143.25
268.168,5183.25
269.193,5207.50
270.217,5240.50
271.241,5207.50
272.263,5277.75
273.287,5244.75
274.311,5228.50
275.332,5316.50
276.356,5274.50
277.379,5267.00
278.402,5253.00
279.424,5248.00
280.447,5152.75
281.470,5133.50
282.492,5143.25
283.513,5051.50
284.536,4972.50
285.558,4955.75
286.581,4951.75
287.601,4865.50
288.623,4817.50
289.645,4824.25
290.665,4723.00
291.687,4751.00
292.709,4678.00
293.730,4653.25
294.750,4633.50
295.771,4626.50
296.792,4547.25
297.813,4491.75
298.832,4470.25
299.853,4501.75
300.874,4510.25
301.895,4392.75
302.913,4431.75
303.934,4368.25
304.954,4314.75
305.975,4313.00
306.993,4302.25
308.013,4280.00
309.033,4232.00
310.052,4203.75
311.072,4225.25
312.090,4213.75
313.109,4230.25
314.129,4192.75
315.148,4162.00
316.165,4151.75
317.184,4142.75
318.203,4125.00
319.222,4156.00
320.238,4096.75
321.257,4092.00
322.275,4091.75
323.294,4095.00
324.312,4055.25
325.328,4070.00
326.346,4081.25
327.364,4075.00
328.382,4090.25
329.397,4039.00
330.415,3978.25
331.432,4035.75
332.450,3974.75
333.467,4043.25
334.482,3992.75
335.499,3925.00
336.516,3994.00
337.533,4010.00
338.547,4021.25
339.564,4029.75
340.580,3972.50
341.597,3994.00
342.613,4006.50
343.627,3999.00
344.643,3933.00
345.659,4034.75
346.675,3956.50
347.690,3899.75
348.704,3959.75
349.719,3914.75
350.735,3954.25
351.750,3933.50
352.765,3901.25
353.778,3926.50
354.793,3926.00
355.808,3897.50
356.822,3901.75
357.837,3913.75
358.851,3851.25
359.864,3937.50
360.878,3877.25
361.892,3923.25
362.906,3920.50
363.920,3900.00
364.932,3918.00
365.945,3874.00
366.959,3904.00
367.972,3971.50
368.986,3928.50
369.999,3928.50
371.010,3892.25
372.023,3941.00
373.036,3955.75
374.049,4000.50
375.061,3952.75
376.072,3943.00
377.084,3971.50
378.097,4015.00
379.109,3982.50
380.121,3992.00
381.133,4019.50
382.143,3950.25
383.155,3916.25
384.166,4019.25
385.178,3982.75
386.189,3930.00
387.201,3942.00
388.212,3995.75
389.221,4006.00
390.232,3955.00
391.243,3954.75
392.254,3972.00
393.264,3937.00
394.275,3933.25
395.283,3966.50
396.294,3901.25
397.304,3929.25
398.314,3929.25
399.324,3907.25
400.334,3904.00
401.344,3915.25
402.351,3879.25
403.361,3884.00
404.370,3837.25
405.380,3872.25
406.389,3893.50
407.398,3867.00
408.407,3871.50
409.414,3842.75
410.423,3840.75
411.431,3849.50
412.440,3797.75
413.448,3844.50
414.457,3816.50
415.465,3804.25
416.471,3808.25
417.479,3780.50
418.487,3795.25
419.495,3794.50
420.503,3751.00
421.510,3778.00
422.518,3757.25
423.525,3733.25
424.530,3793.75
425.537,3760.75
426.544,3791.50
427.551,3768.00
428.558,3771.25
429.565,3723.75
430.571,3744.25
431.578,3737.75
432.582,3731.75
433.588,3731.75
434.595,3723.50
435.601,3739.00
436.607,3700.25
437.612,3758.75
438.618,3713.50
439.624,3750.25
440.627,3759.50
441.633,3753.25
442.638,3690.75
443.643,3752.25
444.648,3745.25
445.653,3745.25
446.658,3736.75
447.663,3730.00
448.667,3666.00
449.672,3748.50
450.674,3726.75
451.678,3761.00
452.682,3755.50
453.687,3719.50
454.690,3730.75
455.694,3727.25
456.698,3731.25
457.702,3710.50
458.705,3692.50
459.709,3702.25
460.710,3728.00
461.713,3705.25
462.716,3745.00
463.719,3741.50
464.722,3675.00
465.725,3744.50
466.727,3726.25
467.730,3759.75
468.732,3710.75
469.735,3695.00
470.737,3705.00
471.737,3740.00
472.739,3759.00
473.741,3774.00
474.742,3733.50
475.744,3723.75
476.746,3712.50
477.747,3752.00
478.748,3686.75
479.750,3706.25
480.751,3788.75
481.752,3743.50
482.753,3728.75
483.751,3711.25
484.752,3703.75
485.753,3710.75
486.753,3673.50
487.753,3705.25
488.754,3677.75
489.754,3681.00
490.754,3734.75
491.754,3710.00
492.754,3716.25
493.753,3665.00
494.753,3735.00
495.752,3654.75
496.752,3715.50
497.749,3703.00
498.748,3703.75
499.747,3639.50
500.746,3631.25
501.745,3651.25
502.744,3716.50
503.742,3657.00
504.741,3567.00
505.739,3624.75
506.737,3595.50
507.735,3629.75
508.734,3611.50
509.732,3586.75
510.729,3549.00
511.727,3556.00
512.725,3535.50
513.720,3540.75
514.718,3544.00
515.715,3470.25
516.712,3502.25
517.709,3556.25
518.706,3527.25
519.703,3596.75
520.700,3480.00
521.696,3530.75
522.693,3539.25
523.689,3508.75
524.686,3487.25
525.682,3549.00
526.678,3512.50
527.674,3538.25
528.670,3567.00
529.666,3550.50
530.661,3481.50
531.657,3515.50
532.652,3551.25
533.648,3547.50
534.641,3538.25
535.636,3487.25
536.631,3556.50
537.626,3565.75
538.621,3526.00
539.616,3510.00
540.610,3561.00
541.605,3548.75
542.599,3517.75
543.593,3576.25
544.587,3543.00
545.581,3465.75
546.575,3477.50
547.569,3541.25
548.563,3474.00
549.557,3516.75
550.550,3536.25
551.543,3437.50
552.537,3471.00
553.530,3502.75
554.523,3494.00
555.516,3496.50
556.509,3402.25
557.502,3466.75
558.494,3426.00
559.487,3456.00
560.479,3461.50
561.472,3374.50
562.464,3436.75
563.456,3359.50
564.448,3460.50
565.440,3417.25
566.432,3410.75
567.423,3422.75
568.415,3420.50
569.404,3425.75
570.396,3452.00
571.387,3431.00
572.378,3442.00
573.369,3490.50
574.360,3466.75
575.351,3441.75
576.341,3476.50
577.332,3486.75
578.323,3455.50
579.313,3464.00
580.303,3440.75
581.293,3445.75
582.283,3413.75
583.273,3400.25
584.263,3516.75
585.253,3471.25
586.243,3540.75
587.232,3473.00
588.222,3456.25
589.211,3474.75
590.200,3582.25
591.189,3504.00
592.178,3478.50
593.167,3514.75
594.156,3454.25
595.145,3550.00
596.133,3538.75
597.122,3523.25
598.110,3532.00
599.098,3518.00
600.086,3521.50
601.074,3564.50
602.062,3511.25
603.050,3511.00
604.038,3468.50
605.025,3511.50
606.013,3553.25
607.000,3495.25
607.987,3506.25
608.975,3449.00
609.962,3466.00
610.949,3392.00
611.936,3407.00
612.922,3379.25
613.909,3377.25
614.895,3401.75
615.882,3355.75
616.868,3349.25
617.854,3275.00
618.841,3262.00
619.826,3235.25
620.812,3205.25
621.798,3211.25
622.784,3243.25
623.769,3146.75
624.755,3118.25
625.740,3100.75
626.725,3129.00
627.711,3097.75
628.698,3074.75
629.683,2984.50
630.667,3060.50
631.652,2982.50
632.637,2999.25
633.621,3047.50
634.606,2985.50
635.590,2961.75
636.574,2923.50
637.558,2901.25
638.542,2892.00
639.526,2900.25
640.510,2804.00
641.493,2818.75
642.477,2815.75
643.460,2809.50
644.444,2778.00
645.427,2813.00
646.410,2773.25
647.393,2757.25
648.376,2757.25
649.359,2781.00
650.341,2717.50
651.324,2766.75
652.307,2722.75
653.289,2735.75
654.271,2745.75
655.253,2648.25
656.235,2646.75
657.217,2713.00
658.199,2703.25
659.181,2729.75
660.163,2695.75
661.144,2682.75
662.126,2584.50
663.107,2599.25
664.088,2625.50
665.069,2601.00
666.050,2601.00
667.033,2652.25
668.014,2571.00
668.995,2648.00
669.975,2572.75
670.956,2539.75
671.936,2515.25
672.916,2482.50
673.896,2478.75
674.876,2522.75
675.856,2482.25
676.836,2491.00
677.816,2461.50
678.795,2484.00
679.775,2457.25
680.754,2437.75
681.734,2384.50
682.713,2388.50
683.692,2345.00
684.671,2359.75
685.650,2375.25
686.629,2341.50
687.607,2303.50
688.586,2264.75
689.564,2317.00
690.543,2278.50
691.523,2238.00
692.501,2244.00
693.479,2230.50
694.457,2223.25
695.435,2247.25
696.413,2228.25
697.390,2196.75
698.368,2254.00
699.345,2246.00
700.322,2163.50
701.300,2205.00
702.277,2170.00
703.254,2170.50
704.231,2140.75
705.207,2154.25
706.184,2140.50
707.161,2130.75
708.137,2147.25
709.113,2166.75
710.090,2141.00
711.068,2131.25
712.044,2128.75
713.020,2065.25
713.996,2107.25
714.971,2044.75
715.947,2065.75
716.922,2102.75
717.898,2064.75
718.873,2058.00
719.848,2079.00
720.823,2079.00
721.798,2034.75
722.773,2039.00
723.748,2037.00
724.723,2034.25
725.697,2072.00
726.672,2058.00
727.646,2010.75
728.622,2043.25
729.596,2027.75
730.570,1999.75
731.544,2046.50
732.518,2010.00
733.492,2003.50
734.466,2002.00
735.439,1986.25
736.413,2021.75
737.386,1980.75
738.359,1970.50
739.332,1977.00
740.305,1963.00
741.278,1934.75
742.251,1950.75
743.224,1952.50
744.196,1909.75
745.171,1937.25
746.143,1939.25
747.115,1923.25
748.087,1940.25
749.059,1869.00
750.031,1902.75
751.003,1857.75
751.975,1960.25
752.947,1924.00
753.918,1870.00
754.890,1825.00
755.861,1900.00
756.832,1898.00
757.803,1871.50
758.774,1856.00
759.747,1844.25
760.718,1849.75
761.689,1863.25
762.659,1826.75
763.630,1830.75
764.600,1818.25
765.570,1853.00
766.540,1818.00
767.510,1844.25
768.480,1821.75
769.450,1821.75
770.420,1797.50
771.390,1763.00
772.359,1808.00
773.329,1755.00
774.300,1728.25
775.269,1759.25
776.238,1755.25
777.207,1741.75
778.176,1792.25
779.145,1765.25
780.114,1772.25
781.083,1670.75
782.051,1700.25
783.019,1707.75
783.988,1708.00
784.956,1716.00
785.924,1744.00
786.894,1727.75
787.862,1751.25
788.830,1719.25
789.797,1689.75
790.765,1676.25
791.732,1664.50
792.700,1670.00
793.667,1702.00
794.634,1690.00
795.601,1686.00
796.568,1626.50
797.535,1679.50
798.502,1657.75
799.468,1639.25
800.437,1659.25
801.403,1635.50
802.370,1646.50
803.336,1647.00
804.302,1628.25
805.268,1652.25
806.234,1601.75
807.200,1611.50
808.166,1636.25
809.131,1607.75
810.097,1622.00
811.062,1593.00
812.027,1627.50
812.994,1587.25
813.960,1565.25
814.925,1594.25
815.889,1604.25
816.854,1589.25
817.819,1549.75
818.783,1592.75
819.748,1535.75
820.712,1573.75
821.677,1567.25
822.641,1594.00
823.605,1631.00
824.571,1571.00
825.534,1576.00
826.498,1597.50
827.462,1591.50
828.425,1532.25
829.389,1591.75
830.352,1559.75
831.315,1577.25
832.279,1557.50
833.242,1553.00
834.204,1571.75
835.167,1545.50
836.132,1576.00
837.095,1513.50
838.057,1543.25
839.020,1538.25
839.982,1543.75
840.944,1570.50
841.906,1571.50
842.868,1558.00
843.830,1516.75
844.792,1525.25
845.753,1567.75
846.715,1572.75
847.679,1543.75
848.640,1574.25
849.601,1566.75
850.562,1504.25
851.523,1544.25
852.484,1574.00
853.445,1548.00
854.406,1553.00
855.367,1585.25
856.327,1525.50
857.288,1561.50
858.248,1541.00
859.210,1581.00
860.170,1538.50
861.130,1592.50
862.090,1514.25
863.050,1589.75
864.010,1570.75
864.969,1552.25
865.929,1529.25
866.888,1555.25
867.848,1545.50
868.807,1566.50
869.766,1556.00
870.727,1484.25
871.686,1575.75
872.645,1541.25
873.604,1546.50
874.562,1573.00
875.521,1577.00
876.479,1539.50
877.437,1588.00
878.396,1550.50
879.354,1573.25
880.312,1638.50
881.270,1573.50
882.229,1551.75
883.187,1592.50
884.145,1582.00
885.102,1587.75
886.059,1541.25
887.017,1582.75
887.974,1654.00
888.931,1608.00
889.888,1605.00
890.845,1646.25
891.802,1631.50
892.758,1642.50
893.717,1616.75
894.673,1630.75
895.630,1650.75
896.586,1613.50
897.542,1645.25
898.498,1645.25
899.454,1610.00
900.410,1654.25
901.366,1640.75
902.321,1679.50
903.277,1638.00
904.232,1652.25
905.189,1660.00
906.145,1676.75
907.100,1668.75
908.055,1635.00
909.010,1655.00
909.965,1707.50
910.919,1683.75
911.874,1709.00
912.828,1662.50
913.783,1662.25
914.737,1698.25
915.693,1703.00
916.648,1698.75
917.602,1687.00
918.555,1703.25
919.509,1657.00
920.463,1706.50
921.417,1681.50
922.370,1677.25
923.324,1739.00
924.277,1710.25
925.230,1733.50
926.183,1727.50
927.138,1727.25
928.091,1705.25
929.044,1718.00
929.996,1761.50
930.949,1755.50
931.902,1736.00
932.854,1679.00
933.806,1764.00
934.758,1700.75
935.711,1719.50
936.663,1744.50
937.614,1760.50
938.568,1689.25
939.520,1722.50
940.471,1756.75
941.423,1724.75
942.374,1725.75
943.326,1727.25
944.277,1719.25
945.228,1696.75
946.179,1681.00
947.130,1705.75
948.080,1695.50
949.031,1702.50
949.984,1702.75
950.934,1692.75
951.884,1700.75
952.835,1673.75
953.785,1732.25
954.735,1717.25
955.685,1684.75
956.635,1686.25
957.585,1696.25
958.534,1697.50
959.484,1688.25
960.433,1665.75
961.383,1668.00
962.334,1636.00
963.283,1604.25
964.232,1672.75
965.181,1653.75
966.130,1603.50
967.079,1654.50
968.027,1629.00
968.976,1599.25
969.924,1611.50
970.873,1622.75
971.821,1593.75
972.769,1595.00
973.719,1623.00
974.667,1576.00
975.615,1619.75
976.562,1584.25
977.510,1603.25
978.458,1578.50
979.405,1601.50
980.352,1617.00
981.300,1557.75
982.247,1536.00
983.194,1569.75
984.141,1566.00
985.088,1539.50
986.036,1523.25
986.983,1590.25
987.930,1573.25
988.876,1600.50
989.822,1552.75
990.769,1558.25
991.715,1582.50
992.661,1569.00
993.607,1582.75
994.553,1552.75
995.498,1564.25
996.444,1522.75
997.389,1539.75
998.337,1523.25
999.282,1510.50
1000.227,1543.00
1001.173,1500.50
1002.118,1536.00
1003.062,1515.50
1004.007,1531.50
1004.952,1496.25
1005.897,1499.50
1006.841,1499.25
1007.786,1552.25
1008.730,1485.50
1009.674,1515.00
1010.618,1477.50
1011.564,1522.75
1012.508,1496.50
1013.452,1521.25
1014.396,1498.50
1015.339,1507.00
1016.283,1459.25
1017.226,1494.25
1018.170,1478.25
1019.113,1468.50
1020.056,1504.50
1020.999,1478.00
1021.942,1488.25
1022.885,1511.00
1023.828,1498.50
1024.770,1513.25
1025.715,1491.00
1026.657,1489.00
1027.600,1495.25
1028.542,1536.25
1029.484,1522.00
1030.426,1504.50
1031.368,1492.00
1032.310,1540.50
1033.251,1512.50
1034.193,1491.50
1035.135,1457.75
1036.076,1494.00
1037.017,1502.75
1037.959,1504.25
1038.900,1481.00
1039.843,1514.00
1040.784,1493.50
1041.725,1536.25
1042.665,1522.50
1043.606,1548.00
1044.547,1519.75
1045.487,1516.75
1046.427,1545.00
1047.368,1530.25
1048.308,1542.00
1049.248,1492.00
1050.188,1525.75
1051.128,1545.75
1052.067,1524.25
1053.007,1509.25
1053.947,1518.75
1054.886,1529.25
1055.827,1528.25
1056.766,1513.75
1057.706,1541.25
1058.645,1512.50
1059.584,1509.25
1060.522,1503.00
1061.461,1533.75
1062.400,1594.25
1063.338,1585.00
1064.277,1582.75
1065.215,1534.50
1066.154,1548.50
1067.092,1576.25
1068.030,1582.25
1068.968,1570.25
1069.906,1588.25
1070.843,1544.50
1071.781,1583.75
1072.720,1610.25
1073.658,1565.25
1074.595,1586.00
1075.533,1595.50
1076.470,1587.50
1077.407,1599.25
1078.344,1574.25
1079.281,1631.25
1080.217,1555.50
1081.154,1622.00
1082.091,1557.75
1083.027,1541.75
1083.964,1552.00
1084.900,1643.50
1085.836,1607.50
1086.772,1560.00
1087.708,1565.75
1088.644,1601.50
1089.580,1608.50
1090.515,1575.50
1091.451,1562.75
1092.388,1553.25
1093.324,1643.75
1094.259,1562.25
1095.194,1552.50
1096.129,1568.50
1097.064,1585.00
1097.999,1512.50
1098.934,1515.00
1099.869,1565.50
1100.803,1543.75
1101.738,1534.75
1102.672,1537.25
1103.607,1524.25
1104.541,1495.75
1105.475,1500.00
1106.409,1449.00
1107.343,1494.75
1108.277,1461.00
1109.210,1454.50
1110.144,1465.75
1111.078,1421.25
1112.011,1457.00
1112.944,1465.25
1113.878,1394.25
1114.811,1430.25
1115.744,1448.00
1116.678,1407.50
1117.611,1397.00
1118.544,1407.00
1119.477,1385.00
1120.409,1375.50
1121.342,1403.50
1122.274,1355.50
1123.206,1357.50
1124.138,1390.25
1125.070,1326.25
1126.002,1393.25
1126.934,1357.50
1127.866,1361.50
1128.798,1331.25
1129.729,1274.00
1130.661,1304.25
1131.592,1317.25
1132.523,1333.50
1133.454,1333.50
1134.385,1253.50
1135.317,1278.00
1136.247,1299.75
1137.178,1289.75
1138.109,1266.75
1139.039,1284.75
1139.970,1229.75
1140.900,1251.25
1141.831,1217.75
1142.761,1252.25
1143.691,1230.25
1144.621,1268.25
1145.551,1173.75
1146.480,1166.25
1147.410,1219.50
1148.340,1242.50
1149.269,1201.00
1150.199,1244.00
1151.128,1234.00
1152.057,1219.75
1152.979,1212.50
1153.898,1227.25
1154.819,1183.00
1155.739,1191.50
1156.658,1206.75
1157.579,1207.50
1158.498,1215.00
1159.419,1158.00
1160.338,1157.75
1161.256,1179.75
1162.177,1170.75
1163.095,1160.50
1164.016,1143.00
1164.934,1177.00
1165.852,1169.75
1166.772,1142.75
1167.690,1149.25
1168.610,1176.50
1169.528,1136.50
1170.446,1146.25
1171.365,1106.00
1172.283,1108.50
1173.202,1147.75
1174.120,1134.50
1175.037,1144.25
1175.956,1125.75
1176.873,1116.25
1177.792,1144.75
1178.709,1101.75
1179.626,1085.00
1180.544,1088.25
1181.461,1105.75
1182.379,1067.00
1183.296,1076.00
1184.212,1096.00
1185.130,1072.25
1186.046,1095.50
1186.962,1093.00
1187.880,1089.75
1188.796,1086.25
1189.714,1074.25
1190.629,1102.50
1191.545,1059.25
1192.462,1043.75
1193.378,1030.75
1194.295,1067.75
1195.210,1098.25
1196.125,1062.50
1197.042,1052.25
1197.957,1046.00
1198.872,1075.75
1199.788,1042.00
1200.703,1029.75
1201.619,1059.00
1202.534,1029.50
1203.448,1016.50
1204.364,1028.25
1205.278,1050.00
1206.192,1043.50
1207.108,1017.25
1208.022,1021.75
1208.938,1053.00
1209.851,1035.75
1210.765,1074.00
1211.680,1040.25
1212.594,1067.50
1213.507,1033.50
1214.422,1036.00
1215.335,1040.25
1216.248,1032.25
1217.163,1035.25
1218.076,1002.00
1218.990,1044.25
1219.903,1028.00
1220.816,1024.00
1221.730,1037.00
1222.642,1027.00
1223.554,1033.75
1224.469,1058.50
1225.380,972.50
1226.292,1047.25
1227.206,1018.75
1228.118,995.00
1229.032,1029.75
1229.943,1024.50
1230.855,1055.75
1231.768,1020.75
1232.679,1016.25
1233.590,1052.75
1234.503,1068.50
1235.414,1016.75
1236.325,1043.25
1237.238,1051.00
1238.149,1026.00
1239.059,1003.50
1239.972,1035.25
1240.882,1034.00
1241.793,1052.25
1242.705,1041.25
1243.615,1017.50
1244.525,1035.25
1245.437,1022.25
1246.347,996.25
1247.259,970.75
1248.168,1022.25
1249.078,1002.00
1249.989,995.00
1250.899,1021.25
1251.808,1035.25
1252.719,1033.50
1253.628,1039.00
1254.537,1001.50
1255.448,1012.75
1256.357,1028.25
1257.266,1050.50
1258.176,1047.00
1259.085,1056.50
1259.993,1049.50
1260.904,1043.00
1261.812,998.00
1262.720,1047.25
1263.630,1016.00
1264.538,1025.25
1265.446,1011.50
1266.356,1009.50
1267.263,1025.00
1268.171,1108.25
1269.080,1023.75
1269.988,1005.25
1270.895,1022.50
1271.804,1088.75
1272.711,1062.75
1273.619,1012.25
1274.527,1011.00
1275.434,982.25
1276.341,1026.75
1277.248,1064.00
1278.156,1032.00
1279.063,990.50
1279.969,1003.50
1280.877,999.00
1281.783,1048.00
1282.690,1019.00
1283.598,1016.50
1284.503,1007.00
1285.409,1020.75
1286.317,983.50
1287.223,978.75
1288.128,1026.75
1289.036,981.50
1289.941,998.75
1290.846,1014.50
1291.751,1007.75
1292.658,996.00
1293.563,961.50
1294.468,981.00
1295.375,1007.75
1296.280,1015.75
1297.184,992.50
1298.091,976.50
1298.995,1010.50
1299.900,962.50
1300.806,953.00
1301.710,1008.50
1302.614,993.00
1303.518,980.50
1304.424,944.50
1305.327,982.00
1306.231,971.50
1307.137,986.50
1308.040,993.75
1308.943,953.50
1309.847,980.75
1310.752,973.50
1311.655,985.00
1312.558,934.50
1313.463,955.00
1314.366,910.25
1315.269,966.50
1316.171,978.50
1317.076,960.25
1317.978,933.75
1318.881,953.75
1319.785,925.25
1320.687,963.25
1321.589,941.75
1322.491,971.25
1323.395,953.25
1324.297,953.25
1325.198,943.75
