Date	2022年07月22日金曜日 10時41分42秒
Spectrometers	USB2+H05879
ダーク	使用
リファレンス	使用
積分時間[usec]	12000
平均回数	10000
ｽﾑｰｼﾞﾝｸﾞ	0
Electrical Dark	USE
ピクセル数	2048
計測モード	吸光度
保存開始波長[nm]	190.664
保存終了波長[nm]	884.878
保存ﾋﾟｯﾁ波長[nm]	全波長

>>>>>>>>>> Data Start <<<<<<<<<<<<
190.664	0.130401
191.040	0.033636
191.415	0.033636
191.791	0.000000
192.166	0.000000
192.542	0.000000
192.917	0.000000
193.293	0.000000
193.668	0.000000
194.044	0.000000
194.419	0.959963
194.794	0.000000
195.170	0.000000
195.545	0.000000
195.920	0.000000
196.296	0.450884
196.671	0.000000
197.046	0.000000
197.421	0.000000
197.796	0.327967
198.171	0.000000
198.546	0.000000
198.922	0.000000
199.297	0.000000
199.672	0.000000
200.047	0.000000
200.422	0.000000
200.796	0.000000
201.171	0.000000
201.546	0.000000
201.921	0.000000
202.296	0.000000
202.671	0.000000
203.045	0.259195
203.420	0.466392
203.795	0.000000
204.170	1.636964
204.544	0.197509
204.919	0.000000
205.294	0.000000
205.668	0.000000
206.043	0.623803
206.417	0.000000
206.792	0.000000
207.166	0.000000
207.541	0.000000
207.915	0.000000
208.289	0.928403
208.664	0.000000
209.038	0.000000
209.412	0.000000
209.787	0.000000
210.161	0.694904
210.535	0.000000
210.909	0.724432
211.284	1.110451
211.658	0.000000
212.032	0.000000
212.406	0.707673
212.780	0.262148
213.154	0.000000
213.528	0.316260
213.902	0.000000
214.276	0.000000
214.650	0.774817
215.024	0.000000
215.398	0.000000
215.772	0.045918
216.145	0.000000
216.519	0.000000
216.893	0.000000
217.267	0.820353
217.640	0.000000
218.014	0.000000
218.388	-0.398783
218.761	0.000000
219.135	0.000000
219.508	0.000000
219.882	0.000000
220.256	0.658861
220.629	0.000000
221.003	1.224562
221.376	0.796748
221.749	0.000000
222.123	0.000000
222.496	0.000000
222.869	0.000000
223.243	0.000000
223.616	0.000000
223.989	0.000000
224.362	0.749951
224.736	0.000000
225.109	0.000000
225.482	0.000000
225.855	0.000000
226.228	0.000000
226.601	0.000000
226.974	0.909971
227.347	0.000000
227.720	0.000000
228.093	0.000000
228.466	0.000000
228.839	0.500056
229.212	0.315433
229.585	0.590264
229.957	0.511833
230.330	0.584109
230.703	0.000000
231.076	0.407017
231.448	0.000000
231.821	0.000000
232.194	0.000000
232.566	0.000000
232.939	0.000000
233.311	0.000000
233.684	0.000000
234.056	0.000000
234.429	0.638891
234.801	0.000000
235.174	1.549454
235.546	0.697229
235.918	0.488008
236.291	0.778045
236.663	0.341076
237.035	0.000000
237.408	0.000000
237.780	0.523930
238.152	0.000000
238.524	0.000000
238.896	0.000000
239.268	0.000000
239.641	0.000000
240.013	0.000000
240.385	0.000000
240.757	0.000000
241.129	-0.211152
241.500	0.571242
241.872	0.246416
242.244	0.000000
242.616	0.368645
242.988	0.219590
243.360	0.653413
243.731	0.000000
244.103	0.000000
244.475	0.000000
244.847	0.308220
245.218	0.000000
245.590	0.000000
245.961	0.000000
246.333	2.655075
246.705	0.631697
247.076	1.653814
247.448	1.064401
247.819	0.677345
248.190	0.817084
248.562	-0.001353
248.933	0.000000
249.305	0.000000
249.676	0.000000
250.047	0.000000
250.418	0.363267
250.790	0.000000
251.161	0.382651
251.532	0.269379
251.903	0.000000
252.274	0.000000
252.645	0.000000
253.016	0.000000
253.387	0.000000
253.758	0.000000
254.129	0.451828
254.500	0.000000
254.871	0.600661
255.242	0.000000
255.613	0.491685
255.984	0.000000
256.355	0.647495
256.725	0.000000
257.096	0.625724
257.467	0.000000
257.838	0.000000
258.208	0.000000
258.579	0.000000
258.949	0.603956
259.320	0.000000
259.690	0.282968
260.061	0.000000
260.431	0.000000
260.802	0.000000
261.172	0.000000
261.543	0.000000
261.913	0.611325
262.283	0.000000
262.654	0.000000
263.024	0.000000
263.394	0.355943
263.764	0.583855
264.135	0.000000
264.505	0.000000
264.875	1.281986
265.245	0.269186
265.615	0.487257
265.985	1.627571
266.355	0.111866
266.725	0.000000
267.095	0.000000
267.465	0.000000
267.835	0.000000
268.205	0.667841
268.575	0.000000
268.944	0.581691
269.314	0.000000
269.684	0.000000
270.054	0.000000
270.423	0.000000
270.793	0.000000
271.163	0.000000
271.532	0.000000
271.902	0.000000
272.271	0.000000
272.641	0.880093
273.010	0.000000
273.380	0.462216
273.749	0.000000
274.119	1.283103
274.488	0.000000
274.857	0.386384
275.227	0.000000
275.596	0.000000
275.965	0.000000
276.335	0.000000
276.704	0.359913
277.073	0.447600
277.442	0.000000
277.811	0.000000
278.180	0.000000
278.549	0.909613
278.918	0.000000
279.287	0.000000
279.656	0.353463
280.025	0.000000
280.394	0.433549
280.763	0.510847
281.132	0.583549
281.501	0.669199
281.869	0.000000
282.238	0.000000
282.607	0.000000
282.976	1.435080
283.344	0.000000
283.713	0.649295
284.081	0.000000
284.450	0.000000
284.819	0.000000
285.187	0.384570
285.556	0.622084
285.924	0.000000
286.292	0.000000
286.661	1.351943
287.029	0.908598
287.398	0.000000
287.766	0.806589
288.134	0.000000
288.502	0.824600
288.871	0.392259
289.239	0.000000
289.607	0.000000
289.975	0.000000
290.343	0.365397
290.711	0.000000
291.079	0.447103
291.447	0.531583
291.815	0.000000
292.183	0.702369
292.551	0.758649
292.919	0.304657
293.287	0.000000
293.655	0.973326
294.022	0.000000
294.390	0.000000
294.758	0.000000
295.126	0.535165
295.493	0.000000
295.861	0.658994
296.229	0.000000
296.596	0.000000
296.964	0.720405
297.331	0.000000
297.699	0.000000
298.066	0.000000
298.434	1.386304
298.801	0.000000
299.168	0.000000
299.536	0.794996
299.903	0.000000
300.270	0.753078
300.638	0.000000
301.005	0.000000
301.372	0.000000
301.739	0.000000
302.106	0.780667
302.473	0.000000
302.840	0.501303
303.207	0.516929
303.574	0.000000
303.941	0.531956
304.308	0.873959
304.675	0.000000
305.042	0.000000
305.409	0.000000
305.776	1.795970
306.143	0.000000
306.509	0.000000
306.876	0.759833
307.243	0.000000
307.610	0.000000
307.976	0.000000
308.343	0.000000
308.709	1.410484
309.076	1.156014
309.442	2.050202
309.809	1.018045
310.175	0.000000
310.542	1.113758
310.908	1.126743
311.275	3.057162
311.641	1.389666
312.007	1.507412
312.373	1.494312
312.740	0.000000
313.106	1.137975
313.472	0.000000
313.838	1.262255
314.204	1.385448
314.570	1.448629
314.936	1.428520
315.302	1.854327
315.668	0.000000
316.034	1.896765
316.400	0.000000
316.766	0.000000
317.132	3.522972
317.498	0.000000
317.864	1.419468
318.230	0.000000
318.595	2.194599
318.961	0.000000
319.327	1.964271
319.692	1.633396
320.058	1.699833
320.424	2.331598
320.789	0.000000
321.155	1.552190
321.520	1.988553
321.886	0.000000
322.251	2.282371
322.616	2.075512
322.982	0.000000
323.347	1.928749
323.712	0.000000
324.078	0.000000
324.443	0.000000
324.808	1.785394
325.173	1.842694
325.539	2.133671
325.904	2.295409
326.269	2.509086
326.634	1.952920
326.999	2.410765
327.364	2.277170
327.729	2.469063
328.094	0.000000
328.459	2.475895
328.823	1.729741
329.188	2.047419
329.553	2.336223
329.918	2.381638
330.283	2.135866
330.647	3.684619
331.012	1.957476
331.377	2.749921
331.741	2.130436
332.106	2.418814
332.470	1.962526
332.835	2.609400
333.199	2.120022
333.564	2.087277
333.928	3.256871
334.293	2.017937
334.657	2.442940
335.021	2.136847
335.386	1.859636
335.750	1.958380
336.114	2.041078
336.478	2.268874
336.843	2.801736
337.207	2.090584
337.571	2.017149
337.935	2.023131
338.299	1.999422
338.663	2.123982
339.027	1.993340
339.391	2.065007
339.755	2.076685
340.119	2.187415
340.483	1.912931
340.846	2.136637
341.210	2.635056
341.574	2.019990
341.938	2.246357
342.301	2.190226
342.665	1.901773
343.029	1.806030
343.392	1.994221
343.756	2.099985
344.119	1.873643
344.483	2.352838
344.846	2.386861
345.210	2.565503
345.573	2.091559
345.937	1.999479
346.300	2.242437
346.663	1.947527
347.027	2.459359
347.390	2.052819
347.753	2.167226
348.116	1.958078
348.479	2.214954
348.843	1.958374
349.206	2.055164
349.569	2.176980
349.932	2.124942
350.295	2.479367
350.658	2.304186
351.021	2.464449
351.383	2.220270
351.746	2.547341
352.109	2.038797
352.472	2.308118
352.835	2.079267
353.197	2.430386
353.560	1.945368
353.923	2.083499
354.285	2.045003
354.648	2.224120
355.011	2.045928
355.373	2.059504
355.736	2.097505
356.461	2.084002
356.823	1.987920
357.185	2.062708
357.548	2.254514
357.910	1.974018
358.272	2.065737
358.635	2.112189
358.997	2.110370
359.359	2.497494
359.721	2.039486
360.083	2.108046
360.445	2.064430
360.807	2.593723
361.169	2.049757
361.531	2.030451
361.893	2.143857
362.255	2.175788
362.617	2.074419
362.979	2.274062
363.341	2.073454
363.703	2.209158
364.064	2.056483
364.426	2.246713
364.788	2.180520
365.149	2.267195
365.511	2.054169
365.873	2.123115
366.234	2.070445
366.596	2.391611
366.957	2.106277
367.319	2.278075
367.680	2.165674
368.042	2.300673
368.403	2.105967
368.764	2.085776
369.126	2.301833
369.487	2.087571
369.848	2.030048
370.209	2.235797
370.570	2.146055
370.931	2.293407
371.293	2.389546
371.654	2.173607
372.015	2.358319
372.376	2.124040
372.737	2.183415
373.098	2.228862
373.458	2.034582
373.819	2.213946
374.180	2.434553
374.541	2.147836
374.902	2.389042
375.263	2.281497
375.623	2.164359
375.984	2.166586
376.345	2.157679
376.705	2.029194
377.066	2.023649
377.426	2.095619
377.787	2.397867
378.147	2.258700
378.508	2.397201
378.868	2.417286
379.228	2.173018
379.589	2.157041
379.949	2.267920
380.309	2.277641
380.670	2.053402
381.030	2.143992
381.390	2.023003
381.750	2.235803
382.110	2.424092
382.470	2.235811
382.830	2.191591
383.190	1.963833
383.550	2.111557
383.910	2.220038
384.270	2.533938
384.630	2.137748
384.990	2.395998
385.350	2.158365
385.709	2.405762
386.069	2.232375
386.429	2.182127
386.788	2.227717
387.148	2.103526
387.508	2.098393
387.867	2.101322
388.227	2.152958
388.586	2.281563
388.946	2.426231
389.305	2.095624
389.665	2.314231
390.024	2.439470
390.383	2.090106
390.743	2.138438
391.102	2.397594
391.461	2.093103
391.820	2.116384
392.179	2.389538
392.539	2.214205
392.898	2.145165
393.257	2.257896
393.616	2.347418
394.334	2.213198
394.693	2.102736
395.051	2.327156
395.410	2.115961
395.769	2.023504
396.128	2.109437
396.487	2.210259
396.845	2.354754
397.204	2.059915
397.563	2.086305
397.921	2.168615
398.280	2.285556
398.638	2.136828
398.997	2.237087
399.355	2.404096
399.714	2.314789
400.072	2.133972
400.431	2.199221
400.789	2.203754
401.147	2.074768
401.506	2.094191
401.864	2.169257
402.222	2.366635
402.580	2.433901
402.938	2.422972
403.297	2.253544
403.655	2.268263
404.013	2.262077
404.371	2.137935
404.729	2.522887
405.087	2.200781
405.444	2.414325
405.802	2.366519
406.160	2.058963
406.518	2.462699
406.876	2.111998
407.233	1.979600
407.591	2.047885
407.949	2.091713
408.306	2.451359
408.664	2.208357
409.022	2.048374
409.379	2.185433
409.737	2.209702
410.094	2.167567
410.451	2.170778
410.809	2.101978
411.166	2.183064
411.523	2.006427
411.881	2.204485
412.238	2.087463
412.595	2.160997
412.952	2.206250
413.310	1.990923
413.667	2.043370
414.024	2.178113
414.381	2.109251
414.738	2.051050
415.095	2.249043
415.452	2.123340
415.809	2.039915
416.165	2.349235
416.522	1.935110
416.879	2.063962
417.236	1.955335
417.593	2.274441
417.949	2.190361
418.306	1.952917
418.663	2.069959
419.019	2.110150
419.376	2.020690
419.732	1.973542
420.089	1.982686
420.445	2.131923
420.802	1.999247
421.158	2.086525
421.514	2.006080
421.871	2.160613
422.227	2.038449
422.583	2.040930
422.939	2.112492
423.295	2.063759
423.652	2.280169
424.008	2.046358
424.364	1.883834
424.720	2.090913
425.076	2.064595
425.432	2.009634
425.788	1.964281
426.143	1.990303
426.499	1.873631
426.855	2.027673
427.211	2.116267
427.567	1.966887
427.922	2.035707
428.278	2.015313
428.634	2.039790
428.989	2.045803
429.345	1.958558
429.700	1.916839
430.056	1.987872
430.411	1.989284
430.767	2.051180
431.122	1.896218
431.478	2.023397
432.188	1.874206
432.543	2.021991
432.899	1.891163
433.254	1.907576
433.609	1.993452
433.964	1.960829
434.319	1.900694
434.674	1.955280
435.029	1.906081
435.384	1.867700
435.739	1.952030
436.094	1.889980
436.449	1.825783
436.804	2.106788
437.158	1.952477
437.513	1.893392
437.868	1.843227
438.223	1.882322
438.577	1.910512
438.932	1.848507
439.287	1.809029
439.641	1.893875
439.996	1.884703
440.350	1.770864
440.704	1.938700
441.059	1.801952
441.413	1.805188
441.768	1.820016
442.122	1.846430
442.476	1.773163
442.830	1.740316
443.185	1.718772
443.539	1.766319
443.893	1.769271
444.247	1.801033
444.601	1.741294
444.955	1.785242
445.309	1.754945
445.663	1.801790
446.017	1.764933
446.371	1.838535
446.724	1.770051
447.078	1.836855
447.432	1.815891
447.786	1.743242
448.139	1.679643
448.493	1.693259
448.847	1.756133
449.200	1.712566
449.554	1.712656
449.907	1.636948
450.261	1.658550
450.614	1.702477
450.968	1.736341
451.321	1.695048
451.674	1.629427
452.027	1.649593
452.381	1.751468
452.734	1.709114
453.087	1.644665
453.440	1.589628
453.793	1.613709
454.146	1.636930
454.499	1.624090
454.852	1.650977
455.205	1.643578
455.558	1.620085
455.911	1.594325
456.264	1.656186
456.617	1.694848
456.970	1.604549
457.322	1.681707
457.675	1.584420
458.028	1.571728
458.380	1.613893
458.733	1.578620
459.086	1.628220
459.438	1.560551
459.791	1.560711
460.143	1.574905
460.496	1.537211
460.848	1.532114
461.200	1.562879
461.553	1.582454
461.905	1.580600
462.257	1.556987
462.609	1.523695
462.961	1.535609
463.314	1.535043
463.666	1.573440
464.018	1.534713
464.370	1.551766
464.722	1.500155
465.074	1.494905
465.426	1.515803
465.777	1.481792
466.129	1.477976
466.481	1.546892
466.833	1.486628
467.184	1.502747
467.536	1.482446
467.888	1.545231
468.239	1.483121
468.591	1.441139
468.943	1.465793
469.294	1.431972
469.646	1.429116
469.997	1.482536
470.348	1.433652
470.700	1.452701
471.051	1.467924
471.402	1.445445
471.754	1.414346
472.105	1.445132
472.456	1.453275
472.807	1.393951
473.158	1.417668
473.509	1.460797
473.860	1.412061
474.211	1.393785
474.562	1.376358
474.913	1.382324
475.264	1.394117
475.615	1.401819
475.966	1.398398
476.316	1.423330
476.667	1.375280
477.018	1.402731
477.368	1.390536
477.719	1.364599
478.070	1.382518
478.420	1.378974
478.771	1.359824
479.121	1.354493
479.472	1.353666
479.822	1.365117
480.172	1.335802
480.523	1.364685
480.873	1.346551
481.223	1.344856
481.573	1.364427
481.924	1.344180
482.274	1.338520
482.624	1.338285
482.974	1.338321
483.324	1.330699
483.674	1.340823
484.024	1.336345
484.374	1.332988
484.724	1.333369
485.073	1.315594
485.423	1.300922
485.773	1.304012
486.123	1.286246
486.472	1.283600
486.822	1.288669
487.172	1.287048
487.521	1.293706
487.871	1.311319
488.220	1.277671
488.570	1.264547
488.919	1.274550
489.268	1.289239
489.618	1.298462
489.967	1.286925
490.316	1.267704
490.666	1.272743
491.015	1.277853
491.364	1.286104
491.713	1.247547
492.062	1.267728
492.411	1.271781
492.760	1.252746
493.109	1.249313
493.458	1.263146
493.807	1.244455
494.156	1.238669
494.505	1.249095
494.853	1.238853
495.202	1.259729
495.551	1.225178
495.900	1.236467
496.248	1.220119
496.597	1.234069
496.945	1.216571
497.294	1.231070
497.642	1.230620
497.991	1.214272
498.339	1.233938
498.688	1.217969
499.036	1.216287
499.384	1.217828
499.732	1.197198
500.081	1.202277
500.429	1.193592
500.777	1.209719
501.125	1.188466
501.473	1.197977
501.821	1.204640
502.169	1.188697
502.517	1.171583
502.865	1.180556
503.213	1.169229
503.561	1.178858
503.908	1.178003
504.256	1.174736
504.604	1.164279
504.952	1.173415
505.299	1.166807
505.647	1.150201
505.994	1.155193
506.342	1.160944
506.689	1.149385
507.037	1.150645
507.384	1.134548
507.732	1.134166
508.079	1.137600
508.426	1.135287
508.774	1.152035
509.121	1.136726
509.468	1.137529
509.815	1.125385
510.162	1.128106
510.509	1.119563
510.856	1.113167
511.203	1.130835
511.550	1.115794
511.897	1.110629
512.244	1.118407
512.591	1.114762
512.938	1.106243
513.284	1.108135
513.631	1.109477
513.978	1.100166
514.324	1.115028
514.671	1.095915
515.018	1.105126
515.364	1.090373
515.711	1.077652
516.057	1.083014
516.403	1.092432
516.750	1.075758
517.096	1.089446
517.443	1.088482
517.789	1.081643
518.135	1.071275
518.481	1.081587
518.827	1.065703
519.173	1.065025
519.519	1.075318
519.865	1.082193
520.211	1.071905
520.557	1.048375
520.903	1.058170
521.249	1.062086
521.595	1.062821
521.941	1.048280
522.287	1.050221
522.632	1.048079
522.978	1.048742
523.324	1.055073
523.669	1.049610
524.015	1.039209
524.360	1.037907
524.706	1.035802
525.051	1.018375
525.397	1.035441
525.742	1.036895
526.087	1.024594
526.433	1.024439
526.778	1.031778
527.123	1.020603
527.468	1.022931
527.813	1.019464
528.158	1.011572
528.504	1.024792
528.849	1.005249
529.193	1.010223
529.538	1.003137
529.883	1.002847
530.228	1.000165
530.573	0.993049
530.918	0.998370
531.263	0.990802
531.607	0.983362
531.952	0.986655
532.296	0.977694
532.641	0.974497
532.986	0.981038
533.330	0.972679
533.675	0.983825
534.019	0.970584
534.363	0.967418
534.708	0.971614
535.052	0.974059
535.396	0.965218
535.741	0.953295
536.085	0.954008
536.429	0.943206
536.773	0.947762
537.117	0.961994
537.461	0.953038
537.805	0.958795
538.149	0.946623
538.493	0.940452
538.837	0.935056
539.181	0.938026
539.524	0.936785
539.868	0.934280
540.212	0.929652
540.556	0.912782
540.899	0.922647
541.243	0.924446
541.586	0.912356
541.930	0.911567
542.273	0.904228
542.617	0.897506
542.960	0.904636
543.304	0.899159
543.647	0.898264
543.990	0.887618
544.333	0.887488
544.677	0.883215
545.020	0.882893
545.363	0.874054
545.706	0.876612
546.049	0.856266
546.392	0.871337
546.735	0.873447
547.078	0.871616
547.421	0.862644
547.764	0.859002
548.106	0.847254
548.449	0.849249
548.792	0.848077
549.135	0.840117
549.477	0.830805
549.820	0.834870
550.162	0.827131
550.505	0.816778
550.847	0.821199
551.190	0.825531
551.532	0.818762
551.875	0.807308
552.217	0.803612
552.559	0.803080
552.901	0.806392
553.244	0.807034
553.586	0.794595
553.928	0.790166
554.270	0.790072
554.612	0.781323
554.954	0.774818
555.296	0.775927
555.638	0.768915
555.980	0.768755
556.322	0.765307
556.663	0.753929
557.005	0.752473
557.347	0.753198
557.689	0.742097
558.030	0.742241
558.372	0.739540
558.713	0.733189
559.055	0.726140
559.396	0.723377
559.738	0.713027
560.079	0.712810
560.421	0.698681
560.762	0.712248
561.103	0.703302
561.444	0.701787
561.786	0.693474
562.127	0.691195
562.468	0.684366
562.809	0.694000
563.150	0.674080
563.491	0.668577
563.832	0.666877
564.173	0.669483
564.514	0.658387
564.855	0.655484
565.195	0.654501
565.536	0.642610
565.877	0.645580
566.218	0.626389
566.558	0.631420
566.899	0.620996
567.239	0.620978
567.580	0.612793
567.920	0.612908
568.261	0.605417
568.601	0.612949
568.941	0.602451
569.282	0.598013
569.622	0.595205
569.962	0.589912
570.302	0.582556
570.643	0.579581
570.983	0.579379
571.323	0.576645
571.663	0.572560
572.003	0.570918
572.343	0.559013
572.683	0.548118
573.022	0.532625
573.362	0.513632
573.702	0.485617
574.042	0.468882
574.381	0.456705
574.721	0.455332
575.061	0.451837
575.400	0.451059
575.740	0.448966
576.079	0.445077
576.419	0.423702
576.758	0.395088
577.097	0.370108
577.437	0.354976
577.776	0.349213
578.115	0.347683
578.454	0.347652
578.794	0.360940
579.133	0.373032
579.472	0.383006
579.811	0.374140
580.150	0.343803
580.489	0.307539
580.828	0.276774
581.167	0.255981
581.505	0.241814
581.844	0.240068
582.183	0.254507
582.522	0.291375
582.860	0.333242
583.199	0.373069
583.538	0.396002
583.876	0.400000
584.215	0.386198
584.553	0.367431
584.891	0.352719
585.230	0.349039
585.568	0.350642
585.906	0.358411
586.245	0.366530
586.583	0.376551
586.921	0.383802
587.259	0.385690
587.597	0.386337
587.935	0.396459
588.273	0.413853
588.611	0.436584
588.949	0.456004
589.287	0.453112
589.625	0.455372
589.963	0.456359
590.300	0.457088
590.638	0.454877
590.976	0.452202
591.313	0.450248
591.651	0.449576
591.989	0.448912
592.326	0.445622
592.664	0.439931
593.001	0.437763
593.338	0.429626
593.676	0.425160
594.013	0.429135
594.350	0.431070
594.687	0.427401
595.025	0.427279
595.362	0.428625
595.699	0.426837
596.036	0.428121
596.373	0.430732
596.710	0.428151
597.047	0.427691
597.384	0.429718
597.720	0.429874
598.057	0.426084
598.394	0.426406
598.731	0.422881
599.067	0.421563
599.404	0.420517
599.741	0.418449
600.077	0.415510
600.414	0.417221
600.750	0.417749
601.087	0.416804
601.423	0.412722
601.759	0.411477
602.096	0.408939
602.432	0.403363
602.768	0.404097
603.104	0.406854
603.440	0.402808
603.776	0.403072
604.112	0.405176
604.448	0.405641
604.784	0.406578
605.120	0.405190
605.456	0.406032
605.792	0.404910
606.128	0.405875
