Date	2021年06月15日火曜日 05時02分53秒
Spectrometers	USB2+H05879
ダーク	使用
リファレンス	使用
積分時間[msec]	10
平均回数	280
ｽﾑｰｼﾞﾝｸﾞ	10
Electrical Dark	USE
ピクセル数	2048
計測モード	吸光度
保存開始波長[nm]	190.664
保存終了波長[nm]	884.878
保存ﾋﾟｯﾁ波長[nm]	全波長

>>>>>>>>>> Data Start <<<<<<<<<<<<
190.664	0.000000
191.040	0.000000
191.415	0.000000
191.791	-2.679979
192.166	-0.561013
192.542	-0.953727
192.917	0.000000
193.293	-0.555878
193.668	-0.454984
194.044	-1.200966
194.419	0.000000
194.794	-1.443134
195.170	-1.354685
195.545	-1.262570
195.920	-1.129327
196.296	-1.014315
196.671	-0.848816
197.046	-0.689233
197.421	-0.634707
197.796	-0.623193
198.171	-0.576869
198.546	-0.533248
198.922	-0.481193
199.297	-0.462406
199.672	-0.439900
200.047	-0.416510
200.422	-0.390052
200.796	-0.371749
201.171	-0.347412
201.546	-0.343506
201.921	-0.326778
202.296	-0.315382
202.671	-0.285535
203.045	-0.261419
203.420	-0.250833
203.795	-0.239031
204.170	-0.231225
204.544	-0.227239
204.919	-0.224832
205.294	-0.217587
205.668	-0.207117
206.043	-0.203173
206.417	-0.209246
206.792	-0.207785
207.166	-0.204119
207.541	-0.196306
207.915	-0.202312
208.289	-0.186083
208.664	-0.185920
209.038	-0.183741
209.412	-0.171547
209.787	-0.157582
210.161	-0.146994
210.535	-0.150668
210.909	-0.142842
211.284	-0.132339
211.658	-0.125158
212.032	-0.124005
212.406	-0.130203
212.780	-0.130306
213.154	-0.128652
213.528	-0.128122
213.902	-0.117016
214.276	-0.105444
214.650	-0.102510
215.024	-0.095225
215.398	-0.096588
215.772	-0.084033
216.145	-0.082104
216.519	-0.070907
216.893	-0.074588
217.267	-0.076862
217.640	-0.088472
218.014	-0.079588
218.388	-0.074490
218.761	-0.076778
219.135	-0.068059
219.508	-0.076086
219.882	-0.078578
220.256	-0.076864
220.629	-0.064925
221.003	-0.075176
221.376	-0.076446
221.749	-0.085673
222.123	-0.086533
222.496	-0.092621
222.869	-0.086410
223.243	-0.083171
223.616	-0.084467
223.989	-0.088190
224.362	-0.088883
224.736	-0.095191
225.109	-0.089096
225.482	-0.083198
225.855	-0.083470
226.228	-0.085147
226.601	-0.079465
226.974	-0.079611
227.347	-0.070834
227.720	-0.067004
228.093	-0.067335
228.466	-0.078288
228.839	-0.069338
229.212	-0.071729
229.585	-0.079272
229.957	-0.081914
230.330	-0.075352
230.703	-0.070279
231.076	-0.069903
231.448	-0.076834
231.821	-0.075523
232.194	-0.074177
232.566	-0.066546
232.939	-0.075063
233.311	-0.076528
233.684	-0.077497
234.056	-0.075754
234.429	-0.073948
234.801	-0.072983
235.174	-0.067669
235.546	-0.069640
235.918	-0.063215
236.291	-0.057582
236.663	-0.058199
237.035	-0.054408
237.408	-0.035175
237.780	-0.026474
238.152	-0.021443
238.524	-0.038444
238.896	-0.036963
239.268	-0.030354
239.641	-0.034739
240.013	-0.030595
240.385	-0.024931
240.757	-0.018180
241.129	-0.022073
241.500	-0.018625
241.872	-0.020804
242.244	-0.023098
242.616	-0.022465
242.988	-0.023789
243.360	-0.019591
243.731	-0.020209
244.103	-0.022744
244.475	-0.023490
244.847	-0.019411
245.218	-0.018808
245.590	-0.014759
245.961	-0.019219
246.333	-0.012376
246.705	-0.014001
247.076	-0.011844
247.448	-0.011464
247.819	-0.013552
248.190	-0.009240
248.562	-0.009970
248.933	-0.007747
249.305	-0.007715
249.676	-0.001387
250.047	-0.005735
250.418	-0.007146
250.790	-0.008173
251.161	-0.008513
251.532	-0.000879
251.903	-0.000961
252.274	0.008702
252.645	0.010126
253.016	0.002426
253.387	-0.006402
253.758	-0.002908
254.129	-0.005785
254.500	-0.002422
254.871	-0.003475
255.242	-0.003024
255.613	-0.008581
255.984	-0.012633
256.355	-0.009626
256.725	0.005830
257.096	0.009010
257.467	0.011596
257.838	0.016133
258.208	0.015958
258.579	0.023071
258.949	0.018620
259.320	0.015551
259.690	0.014448
260.061	0.014498
260.431	0.023349
260.802	0.027194
261.172	0.032258
261.543	0.034223
261.913	0.037214
262.283	0.030241
262.654	0.030364
263.024	0.032494
263.394	0.040874
263.764	0.044495
264.135	0.039821
264.505	0.024950
264.875	0.023964
265.245	0.017442
265.615	0.014485
265.985	0.012964
266.355	0.013109
266.725	0.013829
267.095	0.016850
267.465	0.018867
267.835	0.012457
268.205	0.003912
268.575	0.007616
268.944	0.009467
269.314	0.008259
269.684	0.010485
270.054	0.005866
270.423	0.007147
270.793	0.011038
271.163	0.013841
271.532	0.013316
271.902	0.016208
272.271	0.033692
272.641	0.037366
273.010	0.039928
273.380	0.041082
273.749	0.041193
274.119	0.039435
274.488	0.047454
274.857	0.046930
275.227	0.045766
275.596	0.049421
275.965	0.050075
276.335	0.049894
276.704	0.048875
277.073	0.047013
277.442	0.053174
277.811	0.061970
278.180	0.066339
278.549	0.062574
278.918	0.055610
279.287	0.053086
279.656	0.057862
280.025	0.049413
280.394	0.043903
280.763	0.045533
281.132	0.050569
281.501	0.055509
281.869	0.051645
282.238	0.047298
282.607	0.041154
282.976	0.050898
283.344	0.053152
283.713	0.053684
284.081	0.050799
284.450	0.055993
284.819	0.056666
285.187	0.054980
285.556	0.058976
285.924	0.059538
286.292	0.059055
286.661	0.059171
287.029	0.056031
287.398	0.051624
287.766	0.049488
288.134	0.049922
288.502	0.050093
288.871	0.059657
289.239	0.061141
289.607	0.069076
289.975	0.070797
290.343	0.075782
290.711	0.070122
291.079	0.067674
291.447	0.074465
291.815	0.075212
292.183	0.075307
292.551	0.079650
292.919	0.080974
293.287	0.078093
293.655	0.076445
294.022	0.077318
294.390	0.088322
294.758	0.097304
295.126	0.097926
295.493	0.103909
295.861	0.112406
296.229	0.108882
296.596	0.107306
296.964	0.108484
297.331	0.107725
297.699	0.113271
298.066	0.119014
298.434	0.124717
298.801	0.134526
299.168	0.128286
299.536	0.135243
299.903	0.132011
300.270	0.134227
300.638	0.136386
301.005	0.150926
301.372	0.158338
301.739	0.167738
302.106	0.166487
302.473	0.171877
302.840	0.184324
303.207	0.196015
303.574	0.206670
303.941	0.223753
304.308	0.229219
304.675	0.241571
305.042	0.261934
305.409	0.283843
305.776	0.294700
306.143	0.310885
306.509	0.326180
306.876	0.357053
307.243	0.377804
307.610	0.410701
307.976	0.435362
308.343	0.468884
308.709	0.491045
309.076	0.526049
309.442	0.559278
309.809	0.593769
310.175	0.631388
310.542	0.658141
310.908	0.686165
311.275	0.715896
311.641	0.743792
312.007	0.776186
312.373	0.807421
312.740	0.824116
313.106	0.850238
313.472	0.888302
313.838	0.922320
314.204	0.951211
314.570	0.970815
314.936	0.998071
315.302	1.022968
315.668	1.044934
316.034	1.071602
316.400	1.105734
316.766	1.123057
317.132	1.146518
317.498	1.165292
317.864	1.172807
318.230	1.193514
318.595	1.215293
318.961	1.230973
319.327	1.253123
319.692	1.265413
320.058	1.276828
320.424	1.301253
320.789	1.319721
321.155	1.333551
321.520	1.349195
321.886	1.370289
322.251	1.386695
322.616	1.400642
322.982	1.413804
323.347	1.428382
323.712	1.442058
324.078	1.450804
324.443	1.460473
324.808	1.468956
325.173	1.480193
325.539	1.498570
325.904	1.509686
326.269	1.516871
326.634	1.525094
326.999	1.532941
327.364	1.543401
327.729	1.553530
328.094	1.560596
328.459	1.563159
328.823	1.568585
329.188	1.577642
329.553	1.578731
329.918	1.584598
330.283	1.591942
330.647	1.599527
331.012	1.605615
331.377	1.607115
331.741	1.608944
332.106	1.614946
332.470	1.619041
332.835	1.623864
333.199	1.626037
333.564	1.629860
333.928	1.634010
334.293	1.639260
334.657	1.641178
335.021	1.646165
335.386	1.647116
335.750	1.647055
336.114	1.650729
336.478	1.654133
336.843	1.654760
337.207	1.657691
337.571	1.659068
337.935	1.659816
338.299	1.658236
338.663	1.657104
339.027	1.660938
339.391	1.664145
339.755	1.664236
340.119	1.663007
340.483	1.663149
340.846	1.666017
341.210	1.669100
341.574	1.669609
341.938	1.671135
342.301	1.673117
342.665	1.673889
343.029	1.677850
343.392	1.682682
343.756	1.684389
344.119	1.685969
344.483	1.686618
344.846	1.686963
345.210	1.691122
345.573	1.691305
345.937	1.692504
346.300	1.696103
346.663	1.695758
347.027	1.697763
347.390	1.698878
347.753	1.702587
348.116	1.703458
348.479	1.703473
348.843	1.703030
349.206	1.704155
349.569	1.703206
349.932	1.704500
350.295	1.704337
350.658	1.703430
351.021	1.703437
351.383	1.704663
351.746	1.704648
352.109	1.705069
352.472	1.707201
352.835	1.706477
353.197	1.708599
353.560	1.711224
353.923	1.710318
354.285	1.710550
354.648	1.710434
355.011	1.713330
355.373	1.714778
355.736	1.717857
356.098	1.718723
356.461	1.719383
356.823	1.720392
357.185	1.724110
357.548	1.725743
357.910	1.727268
358.272	1.728932
358.635	1.728223
358.997	1.729274
359.359	1.732899
359.721	1.733839
360.083	1.735539
360.445	1.737379
360.807	1.739063
361.169	1.738682
361.531	1.741031
361.893	1.743310
362.255	1.745446
362.617	1.745316
362.979	1.745897
363.341	1.745361
363.703	1.745762
364.064	1.746853
364.426	1.748644
364.788	1.748664
365.149	1.749149
365.511	1.750316
365.873	1.752427
366.234	1.755018
366.596	1.754618
366.957	1.753087
367.319	1.753535
367.680	1.753451
368.042	1.751363
368.403	1.752624
368.764	1.755170
369.126	1.755081
369.487	1.755514
369.848	1.755318
370.209	1.756533
370.570	1.756313
370.931	1.758402
371.293	1.759339
371.654	1.760317
372.015	1.762370
372.376	1.763805
372.737	1.765098
373.098	1.766307
373.458	1.766455
373.819	1.767626
374.180	1.770043
374.541	1.773303
374.902	1.775759
375.263	1.777340
375.623	1.781629
375.984	1.783316
376.345	1.783388
376.705	1.786357
377.066	1.788347
377.426	1.789252
377.787	1.789769
378.147	1.791378
378.508	1.790456
378.868	1.792432
379.228	1.792698
379.589	1.790667
379.949	1.791165
380.309	1.792397
380.670	1.792806
381.030	1.793378
381.390	1.795139
381.750	1.794636
382.110	1.792996
382.470	1.794344
382.830	1.795338
383.190	1.795966
383.550	1.795111
383.910	1.796367
384.270	1.795657
384.630	1.796493
384.990	1.798090
385.350	1.798993
385.709	1.798994
386.069	1.800811
386.429	1.800424
386.788	1.802089
387.148	1.804754
387.508	1.806067
387.867	1.806128
388.227	1.806429
388.586	1.807240
388.946	1.806788
389.305	1.808746
389.665	1.810806
390.024	1.811838
390.383	1.813443
390.743	1.812694
391.102	1.812699
391.461	1.811937
391.820	1.813299
392.179	1.811442
392.539	1.809710
392.898	1.810546
393.257	1.811456
393.616	1.812607
393.975	1.812921
394.334	1.813039
394.693	1.813063
395.051	1.813384
395.410	1.813148
395.769	1.814569
396.128	1.814625
396.487	1.814367
396.845	1.813413
397.204	1.812034
397.563	1.809563
397.921	1.807418
398.280	1.806896
398.638	1.805769
398.997	1.805228
399.355	1.804076
399.714	1.805635
400.072	1.805109
400.431	1.803458
400.789	1.802619
401.147	1.799855
401.506	1.798235
401.864	1.796583
402.222	1.795006
402.580	1.790682
402.938	1.789645
403.297	1.787464
403.655	1.786048
404.013	1.784513
404.371	1.783530
404.729	1.782011
405.087	1.780753
405.444	1.779788
405.802	1.778280
406.160	1.777930
406.518	1.776803
406.876	1.776445
407.233	1.773283
407.591	1.772499
407.949	1.771761
408.306	1.770327
408.664	1.769269
409.022	1.769341
409.379	1.768803
409.737	1.767338
410.094	1.766674
410.451	1.765731
410.809	1.763443
411.166	1.761233
411.523	1.760375
411.881	1.758213
412.238	1.756328
412.595	1.754695
412.952	1.752937
413.310	1.751382
413.667	1.750077
414.024	1.749641
414.381	1.746805
414.738	1.744937
415.095	1.742185
415.452	1.740355
415.809	1.738924
416.165	1.737277
416.522	1.734248
416.879	1.731799
417.236	1.729084
417.593	1.727268
417.949	1.724582
418.306	1.723383
418.663	1.723119
419.019	1.720517
419.376	1.718351
419.732	1.716009
420.089	1.714573
420.445	1.712269
420.802	1.710850
421.158	1.707595
421.514	1.704693
421.871	1.702430
422.227	1.700356
422.583	1.698703
422.939	1.695545
423.295	1.692623
423.652	1.690113
424.008	1.687134
424.364	1.684353
424.720	1.682436
425.076	1.680674
425.432	1.678098
425.788	1.675678
426.143	1.671796
426.499	1.668892
426.855	1.666918
427.211	1.664532
427.567	1.661565
427.922	1.659957
428.278	1.655505
428.634	1.653615
428.989	1.650460
429.345	1.647788
429.700	1.645219
430.056	1.643514
430.411	1.641740
430.767	1.639612
431.122	1.636860
431.478	1.634593
431.833	1.631649
432.188	1.627337
432.543	1.624611
432.899	1.620937
433.254	1.616370
433.609	1.612951
433.964	1.609523
434.319	1.605073
434.674	1.601579
435.029	1.597989
435.384	1.593003
435.739	1.589700
436.094	1.586378
436.449	1.582760
436.804	1.579236
437.158	1.575656
437.513	1.571644
437.868	1.566882
438.223	1.562751
438.577	1.558287
438.932	1.554969
439.287	1.551482
439.641	1.548043
439.996	1.543809
440.350	1.540166
440.704	1.537915
441.059	1.534273
441.413	1.529941
441.768	1.526785
442.122	1.524033
442.476	1.520117
442.830	1.516492
443.185	1.513530
443.539	1.509255
443.893	1.505671
444.247	1.501390
444.601	1.497990
444.955	1.493422
445.309	1.489637
445.663	1.485746
446.017	1.482304
446.371	1.477226
446.724	1.472141
447.078	1.467648
447.432	1.463246
447.786	1.459049
448.139	1.453292
448.493	1.448824
448.847	1.444424
449.200	1.439204
449.554	1.433877
449.907	1.429544
450.261	1.424750
450.614	1.419744
450.968	1.415286
451.321	1.410417
451.674	1.405747
452.027	1.400445
452.381	1.396009
452.734	1.391580
453.087	1.386840
453.440	1.381271
453.793	1.376872
454.146	1.372450
454.499	1.368346
454.852	1.363829
455.205	1.359121
455.558	1.354882
455.911	1.350327
456.264	1.345959
456.617	1.341913
456.970	1.338059
457.322	1.333719
457.675	1.330035
458.028	1.326241
458.380	1.322534
458.733	1.319084
459.086	1.315530
459.438	1.312170
459.791	1.308303
460.143	1.304435
460.496	1.300185
460.848	1.296664
461.200	1.292900
461.553	1.289227
461.905	1.285479
462.257	1.281635
462.609	1.277904
462.961	1.275051
463.314	1.271558
463.666	1.268002
464.018	1.264355
464.370	1.260813
464.722	1.257334
465.074	1.253471
465.426	1.250245
465.777	1.246460
466.129	1.242990
466.481	1.239574
466.833	1.236058
467.184	1.232968
467.536	1.229799
467.888	1.226549
468.239	1.223154
468.591	1.219214
468.943	1.215142
469.294	1.210843
469.646	1.206832
469.997	1.202885
470.348	1.198629
470.700	1.194934
471.051	1.191544
471.402	1.188045
471.754	1.184556
472.105	1.181397
472.456	1.178503
472.807	1.175402
473.158	1.172836
473.509	1.170038
473.860	1.167283
474.211	1.164627
474.562	1.161898
474.913	1.158864
475.264	1.156008
475.615	1.153377
475.966	1.150889
476.316	1.148190
476.667	1.145681
477.018	1.143000
477.368	1.140207
477.719	1.137461
478.070	1.134787
478.420	1.132110
478.771	1.129643
479.121	1.126996
479.472	1.124404
479.822	1.121726
480.172	1.119197
480.523	1.116462
480.873	1.113373
481.223	1.109920
481.573	1.106475
481.924	1.103034
482.274	1.099945
482.624	1.097214
482.974	1.094752
483.324	1.092678
483.674	1.091094
484.024	1.089390
484.374	1.087921
484.724	1.086458
485.073	1.084872
485.423	1.083213
485.773	1.081564
486.123	1.079841
486.472	1.078127
486.822	1.076402
487.172	1.074779
487.521	1.073021
487.871	1.071334
488.220	1.069628
488.570	1.067830
488.919	1.065650
489.268	1.063093
489.618	1.060180
489.967	1.056818
490.316	1.052942
490.666	1.048897
491.015	1.044897
491.364	1.041390
491.713	1.037912
492.062	1.034755
492.411	1.031710
492.760	1.029058
493.109	1.026215
493.458	1.023522
493.807	1.021027
494.156	1.018326
494.505	1.015687
494.853	1.012902
495.202	1.010090
495.551	1.007380
495.900	1.004630
496.248	1.001784
496.597	0.999105
496.945	0.996569
497.294	0.993955
497.642	0.991361
497.991	0.988647
498.339	0.985885
498.688	0.983370
499.036	0.980900
499.384	0.978433
499.732	0.976003
500.081	0.973332
500.429	0.970786
500.777	0.968258
501.125	0.965741
501.473	0.963419
501.821	0.961040
502.169	0.958882
502.517	0.956554
502.865	0.954362
503.213	0.952060
503.561	0.949879
503.908	0.947745
504.256	0.945505
504.604	0.943316
504.952	0.941107
505.299	0.938987
505.647	0.936822
505.994	0.934574
506.342	0.932235
506.689	0.930018
507.037	0.927707
507.384	0.925488
507.732	0.923427
508.079	0.921278
508.426	0.919178
508.774	0.916984
509.121	0.914867
509.468	0.912743
509.815	0.910659
510.162	0.908477
510.509	0.906602
510.856	0.904598
511.203	0.902623
511.550	0.900580
511.897	0.898610
512.244	0.896738
512.591	0.894686
512.938	0.892702
513.284	0.890680
513.631	0.888675
513.978	0.886722
514.324	0.884859
514.671	0.882960
515.018	0.881004
515.364	0.879244
515.711	0.877213
516.057	0.875211
516.403	0.873348
516.750	0.871370
517.096	0.869583
517.443	0.867697
517.789	0.865822
518.135	0.864026
518.481	0.862091
518.827	0.860235
519.173	0.858421
519.519	0.856540
519.865	0.854702
520.211	0.853013
520.557	0.851072
520.903	0.849113
521.249	0.847104
521.595	0.845235
521.941	0.843316
522.287	0.841332
522.632	0.839078
522.978	0.837099
523.324	0.835217
523.669	0.833126
524.015	0.831041
524.360	0.828940
524.706	0.826972
525.051	0.824878
525.397	0.822818
525.742	0.820929
526.087	0.818994
526.433	0.816945
526.778	0.815016
527.123	0.813101
527.468	0.811074
527.813	0.809227
528.158	0.807414
528.504	0.805325
528.849	0.803195
529.193	0.801127
529.538	0.798995
529.883	0.796902
530.228	0.794596
530.573	0.792355
530.918	0.790219
531.263	0.788124
531.607	0.786124
531.952	0.784077
532.296	0.781974
532.641	0.779974
532.986	0.777685
533.330	0.775556
533.675	0.773434
534.019	0.771138
534.363	0.768806
534.708	0.766580
535.052	0.764270
535.396	0.762062
535.741	0.760038
536.085	0.757818
536.429	0.755607
536.773	0.753306
537.117	0.751005
537.461	0.748682
537.805	0.746208
538.149	0.743570
538.493	0.740945
538.837	0.738346
539.181	0.735587
539.524	0.732956
539.868	0.730206
540.212	0.727562
540.556	0.724884
540.899	0.722174
541.243	0.719593
541.586	0.717007
541.930	0.714235
542.273	0.711579
542.617	0.708766
542.960	0.705893
543.304	0.702910
543.647	0.699848
543.990	0.696779
544.333	0.693722
544.677	0.690650
545.020	0.687586
545.363	0.684653
545.706	0.681715
546.049	0.678695
546.392	0.675812
546.735	0.672844
547.078	0.669741
547.421	0.666650
547.764	0.663418
548.106	0.660113
548.449	0.656619
548.792	0.653190
549.135	0.649878
549.477	0.646513
549.820	0.643285
550.162	0.639934
550.505	0.636643
550.847	0.633263
551.190	0.629796
551.532	0.626155
551.875	0.622436
552.217	0.618667
552.559	0.614894
552.901	0.611180
553.244	0.607568
553.586	0.604055
553.928	0.600590
554.270	0.597296
554.612	0.593978
554.954	0.590679
555.296	0.587300
555.638	0.583982
555.980	0.580410
556.322	0.576571
556.663	0.572605
557.005	0.568553
557.347	0.564675
557.689	0.560868
558.030	0.557163
558.372	0.553431
558.713	0.549767
559.055	0.546072
559.396	0.542349
559.738	0.538570
560.079	0.534840
560.421	0.531097
560.762	0.527401
561.103	0.523757
561.444	0.520209
561.786	0.516738
562.127	0.513294
562.468	0.509815
562.809	0.506220
563.150	0.502559
563.491	0.498873
563.832	0.494984
564.173	0.491040
564.514	0.486900
564.855	0.482708
565.195	0.478378
565.536	0.474108
565.877	0.469938
566.218	0.465893
566.558	0.461942
566.899	0.458190
567.239	0.454611
567.580	0.451296
567.920	0.448221
568.261	0.445413
568.601	0.442713
568.941	0.440119
569.282	0.437634
569.622	0.435271
569.962	0.432870
570.302	0.430545
570.643	0.428272
570.983	0.426098
571.323	0.424022
571.663	0.422051
572.003	0.420056
572.343	0.418106
572.683	0.415991
573.022	0.413789
573.362	0.411445
573.702	0.409119
574.042	0.406834
574.381	0.404613
574.721	0.402450
575.061	0.400372
575.400	0.398444
575.740	0.396557
576.079	0.394698
576.419	0.392731
576.758	0.390643
577.097	0.388488
577.437	0.386248
577.776	0.383945
578.115	0.381721
578.454	0.379611
578.794	0.377729
579.133	0.376016
579.472	0.374455
579.811	0.373043
580.150	0.371626
580.489	0.370207
580.828	0.368658
581.167	0.367042
581.505	0.365417
581.844	0.363794
582.183	0.362158
582.522	0.360536
582.860	0.358956
583.199	0.357455
583.538	0.356069
583.876	0.354718
584.215	0.353385
584.553	0.352048
584.891	0.350783
585.230	0.349441
585.568	0.348029
585.906	0.346509
586.245	0.345023
586.583	0.343580
586.921	0.342269
587.259	0.341104
587.597	0.339985
587.935	0.338854
588.273	0.337640
588.611	0.336243
588.949	0.334759
589.287	0.333225
589.625	0.331669
589.963	0.330192
590.300	0.328773
590.638	0.327441
590.976	0.326153
591.313	0.324869
591.651	0.323577
591.989	0.322249
592.326	0.321006
592.664	0.319885
593.001	0.318805
593.338	0.317835
593.676	0.316914
594.013	0.315973
594.350	0.315056
594.687	0.314201
595.025	0.313448
595.362	0.312630
595.699	0.311796
596.036	0.310970
596.373	0.310127
596.710	0.309259
597.047	0.308364
597.384	0.307474
597.720	0.306546
598.057	0.305645
598.394	0.304704
598.731	0.303793
599.067	0.302881
599.404	0.301961
599.741	0.301049
600.077	0.300194
600.414	0.299427
600.750	0.298702
601.087	0.298050
601.423	0.297367
601.759	0.296714
602.096	0.295967
