Date	2022年12月21日水曜日 09時26分15秒
Spectrometers	USB2+H05879
ダーク	使用
リファレンス	使用
積分時間[msec]	2
平均回数	10000
ｽﾑｰｼﾞﾝｸﾞ	0
Electrical Dark	USE
ピクセル数	2048
計測モード	吸光度
保存開始波長[nm]	190.664
保存終了波長[nm]	884.878
保存ﾋﾟｯﾁ波長[nm]	全波長

>>>>>>>>>> Data Start <<<<<<<<<<<<
190.664	0.000000
191.040	0.000000
191.415	0.000000
191.791	0.000000
192.166	0.000000
192.542	0.000000
192.917	0.000000
193.293	0.372161
193.668	0.000000
194.044	0.000000
194.419	0.000000
194.794	0.000000
195.170	0.000000
195.545	0.000000
195.920	1.076512
196.296	0.000000
196.671	0.269030
197.046	0.000000
197.421	0.000000
197.796	0.000000
198.171	0.000000
198.546	0.000000
198.922	0.579306
199.297	0.000000
199.672	0.000000
200.047	0.000000
200.422	0.000000
200.796	0.000000
201.171	0.000000
201.546	0.663581
201.921	0.154493
202.296	0.658277
202.671	0.000000
203.045	0.319947
203.420	0.000000
203.795	0.000000
204.170	0.000000
204.544	0.000000
204.919	0.651569
205.294	0.764827
205.668	0.000000
206.043	1.252686
206.417	0.000000
206.792	0.000000
207.166	0.000000
207.541	0.000000
207.915	0.000000
208.289	1.521691
208.664	0.000000
209.038	0.000000
209.412	0.000000
209.787	0.000000
210.161	0.000000
210.535	0.000000
210.909	0.000000
211.284	0.000000
211.658	0.000000
212.032	0.000000
212.406	0.888863
212.780	0.000000
213.154	0.000000
213.528	0.000000
213.902	0.000000
214.276	0.000000
214.650	2.666971
215.024	0.000000
215.398	0.000000
215.772	0.000000
216.145	0.688017
216.519	0.000000
216.893	0.000000
217.267	0.000000
217.640	0.000000
218.014	0.000000
218.388	0.000000
218.761	1.478698
219.135	0.000000
219.508	0.000000
219.882	0.000000
220.256	0.000000
220.629	0.000000
221.003	0.000000
221.376	0.000000
221.749	0.800026
222.123	0.000000
222.496	0.000000
222.869	0.930968
223.243	0.000000
223.616	0.000000
223.989	0.000000
224.362	0.000000
224.736	0.000000
225.109	0.000000
225.482	0.000000
225.855	0.000000
226.228	0.000000
226.601	0.000000
226.974	0.000000
227.347	0.600923
227.720	0.000000
228.093	0.000000
228.466	0.929536
228.839	0.000000
229.212	0.000000
229.585	0.000000
229.957	0.000000
230.330	2.347810
230.703	0.000000
231.076	0.000000
231.448	0.000000
231.821	0.000000
232.194	1.306516
232.566	0.514190
232.939	1.507448
233.311	0.000000
233.684	0.000000
234.056	0.000000
234.429	0.000000
234.801	0.000000
235.174	0.000000
235.546	0.541846
235.918	0.000000
236.291	0.000000
236.663	0.000000
237.035	0.000000
237.408	1.238998
237.780	0.000000
238.152	0.000000
238.524	0.590918
238.896	0.000000
239.268	0.000000
239.641	0.000000
240.013	0.000000
240.385	0.000000
240.757	0.000000
241.129	0.000000
241.500	0.683781
241.872	0.000000
242.244	0.000000
242.616	0.000000
242.988	0.000000
243.360	0.000000
243.731	0.000000
244.103	0.000000
244.475	0.000000
244.847	0.000000
245.218	0.000000
245.590	0.000000
245.961	0.590667
246.333	0.000000
246.705	2.903570
247.076	0.000000
247.448	0.000000
247.819	0.000000
248.190	0.000000
248.562	0.000000
248.933	0.000000
249.305	0.000000
249.676	0.000000
250.047	0.000000
250.418	0.000000
250.790	0.000000
251.161	0.000000
251.532	0.664536
251.903	0.000000
252.274	0.517094
252.645	0.811412
253.016	0.000000
253.387	0.000000
253.758	1.243165
254.129	0.000000
254.500	0.000000
254.871	0.000000
255.242	0.000000
255.613	0.000000
255.984	0.000000
256.355	0.000000
256.725	0.000000
257.096	0.000000
257.467	0.685283
257.838	0.000000
258.208	0.000000
258.579	0.000000
258.949	0.000000
259.320	0.000000
259.690	0.000000
260.061	0.000000
260.431	0.000000
260.802	0.803255
261.172	0.619242
261.543	0.000000
261.913	0.000000
262.283	0.945582
262.654	0.000000
263.024	0.615411
263.394	0.000000
263.764	0.000000
264.135	1.001935
264.505	0.000000
264.875	1.012538
265.245	0.000000
265.615	0.901448
265.985	1.040874
266.355	0.000000
266.725	0.000000
267.095	0.000000
267.465	0.000000
267.835	0.945438
268.205	0.000000
268.575	0.627571
268.944	0.000000
269.314	0.000000
269.684	0.000000
270.054	0.000000
270.423	0.000000
270.793	0.000000
271.163	1.075108
271.532	0.000000
271.902	0.000000
272.271	0.000000
272.641	0.000000
273.010	0.000000
273.380	0.000000
273.749	0.000000
274.119	0.000000
274.488	0.862861
274.857	0.000000
275.227	1.078142
275.596	0.000000
275.965	0.000000
276.335	0.625596
276.704	0.442909
277.073	0.000000
277.442	0.000000
277.811	0.000000
278.180	1.307664
278.549	1.139621
278.918	0.000000
279.287	0.000000
279.656	0.000000
280.025	0.000000
280.394	0.000000
280.763	0.000000
281.132	1.053579
281.501	0.000000
281.869	0.818663
282.238	0.000000
282.607	0.000000
282.976	0.716869
283.344	1.048346
283.713	0.000000
284.081	0.000000
284.450	0.000000
284.819	0.000000
285.187	1.197780
285.556	0.000000
285.924	1.477709
286.292	0.000000
286.661	0.000000
287.029	0.839455
287.398	0.000000
287.766	0.000000
288.134	0.000000
288.502	0.000000
288.871	0.794245
289.239	2.161000
289.607	0.000000
289.975	0.000000
290.343	0.000000
290.711	0.000000
291.079	0.000000
291.447	0.000000
291.815	1.090069
292.183	0.000000
292.551	0.000000
292.919	0.000000
293.287	0.000000
293.655	0.000000
294.022	0.000000
294.390	0.000000
294.758	0.000000
295.126	0.000000
295.493	0.000000
295.861	0.000000
296.229	0.000000
296.596	0.000000
296.964	0.783449
297.331	1.081571
297.699	0.000000
298.066	0.000000
298.434	0.792641
298.801	0.000000
299.168	0.000000
299.536	1.245328
299.903	0.000000
300.270	0.871070
300.638	0.832109
301.005	0.000000
301.372	0.000000
301.739	0.000000
302.106	1.901467
302.473	1.053980
302.840	0.000000
303.207	0.000000
303.574	1.107982
303.941	0.000000
304.308	0.000000
304.675	0.000000
305.042	0.000000
305.409	0.000000
305.776	0.000000
306.143	0.000000
306.509	1.360699
306.876	1.967671
307.243	0.000000
307.610	0.000000
307.976	0.000000
308.343	0.000000
308.709	0.000000
309.076	1.155417
309.442	1.338842
309.809	3.138780
310.175	1.427510
310.542	2.571208
310.908	1.425350
311.275	1.390763
311.641	1.316780
312.007	1.578534
312.373	0.000000
312.740	1.813791
313.106	1.302487
313.472	1.584149
313.838	1.743857
314.204	1.287483
314.570	1.441787
314.936	1.589906
315.302	1.847794
315.668	1.416976
316.034	1.659695
316.400	2.146096
316.766	1.640557
317.132	1.495995
317.498	1.535919
317.864	1.591540
318.230	1.606946
318.595	1.504427
318.961	1.683905
319.327	1.643473
319.692	1.639611
320.058	1.662171
320.424	1.725129
320.789	1.611580
321.155	1.616971
321.520	1.515559
321.886	1.693878
322.251	1.628792
322.616	1.775060
322.982	1.513622
323.347	1.737139
323.712	1.650493
324.078	1.685285
324.443	1.771214
324.808	1.593544
325.173	1.672409
325.539	1.686250
325.904	1.677669
326.269	1.661231
326.634	1.745432
326.999	1.712329
327.364	1.655131
327.729	1.693576
328.094	1.659272
328.459	1.683363
328.823	1.755955
329.188	1.661749
329.553	1.709186
329.918	1.677910
330.283	1.651248
330.647	1.631319
331.012	1.672720
331.377	1.712496
331.741	1.712207
332.106	1.717319
332.470	1.717495
332.835	1.735183
333.199	1.698771
333.564	1.671080
333.928	1.706532
334.293	1.728577
334.657	1.699037
335.021	1.705511
335.386	1.672801
335.750	1.727894
336.114	1.719149
336.478	1.692064
336.843	1.699342
337.207	1.715739
337.571	1.705023
337.935	1.668857
338.299	1.672699
338.663	1.733230
339.027	1.686165
339.391	1.685143
339.755	1.669859
340.119	1.671072
340.483	1.679298
340.846	1.645191
341.210	1.661644
341.574	1.690195
341.938	1.684016
342.301	1.662936
342.665	1.663824
343.029	1.645005
343.392	1.697922
343.756	1.637827
344.119	1.655121
344.483	1.667131
344.846	1.646935
345.210	1.654800
345.573	1.653796
345.937	1.651657
346.300	1.664678
346.663	1.651685
347.027	1.644673
347.390	1.687416
347.753	1.692721
348.116	1.655466
348.479	1.662718
348.843	1.661975
349.206	1.625330
349.569	1.703174
349.932	1.676814
350.295	1.674237
350.658	1.670766
351.021	1.676572
351.383	1.661679
351.746	1.652424
352.109	1.638028
352.472	1.660760
352.835	1.695766
353.197	1.626725
353.560	1.697134
353.923	1.687576
354.285	1.673101
354.648	1.698446
355.011	1.689508
355.373	1.649794
355.736	1.644392
356.098	1.653373
356.461	1.669494
356.823	1.633527
357.185	1.664875
357.548	1.668442
357.910	1.656334
358.272	1.676509
358.635	1.672661
358.997	1.664031
359.359	1.676104
359.721	1.677270
360.083	1.677184
360.445	1.674842
360.807	1.698811
361.169	1.683976
361.531	1.651644
361.893	1.669579
362.255	1.701431
362.617	1.674312
362.979	1.656908
363.341	1.652808
363.703	1.667280
364.064	1.667384
364.426	1.669086
364.788	1.668662
365.149	1.671500
365.511	1.673015
365.873	1.692252
366.234	1.684685
366.596	1.661990
366.957	1.682178
367.319	1.678132
367.680	1.694351
368.042	1.684807
368.403	1.677981
368.764	1.677718
369.126	1.698798
369.487	1.659388
369.848	1.676968
370.209	1.660030
370.570	1.680535
370.931	1.677352
371.293	1.678589
371.654	1.676405
372.015	1.685183
372.376	1.668390
372.737	1.662871
373.098	1.664629
373.458	1.695629
373.819	1.683130
374.180	1.645974
374.541	1.689270
374.902	1.661860
375.263	1.669722
375.623	1.684859
375.984	1.676765
376.345	1.661536
376.705	1.690818
377.066	1.670023
377.426	1.702302
377.787	1.689956
378.147	1.687507
378.508	1.673095
378.868	1.672154
379.228	1.674446
379.589	1.668560
379.949	1.683383
380.309	1.665182
380.670	1.658392
381.030	1.658843
381.390	1.677228
381.750	1.670855
382.110	1.676642
382.470	1.678946
382.830	1.684862
383.190	1.670991
383.550	1.681296
383.910	1.693748
384.270	1.680433
384.630	1.695834
384.990	1.705812
385.350	1.700253
385.709	1.715625
386.069	1.699974
386.429	1.679960
386.788	1.680626
387.148	1.676286
387.508	1.694000
387.867	1.676089
388.227	1.685354
388.586	1.671689
388.946	1.671246
389.305	1.684631
389.665	1.689666
390.024	1.690053
390.383	1.674833
390.743	1.704494
391.102	1.703161
391.461	1.651989
391.820	1.688989
392.179	1.695693
392.539	1.698447
392.898	1.682711
393.257	1.691075
393.616	1.693814
393.975	1.708307
394.334	1.711902
394.693	1.687508
395.051	1.707675
395.410	1.678555
395.769	1.680717
396.128	1.692488
396.487	1.694160
396.845	1.694628
397.204	1.677286
397.563	1.698478
397.921	1.712400
398.280	1.684181
398.638	1.684335
398.997	1.702119
399.355	1.699915
399.714	1.717421
400.072	1.698368
400.431	1.660369
400.789	1.688128
401.147	1.681532
401.506	1.674319
401.864	1.684626
402.222	1.675390
402.580	1.711462
402.938	1.717693
403.297	1.700871
403.655	1.668093
404.013	1.684014
404.371	1.698081
404.729	1.692226
405.087	1.674916
405.444	1.688086
405.802	1.709293
406.160	1.672121
406.518	1.678713
406.876	1.677095
407.233	1.677387
407.591	1.686377
407.949	1.687159
408.306	1.702468
408.664	1.679694
409.022	1.665643
409.379	1.682578
409.737	1.679519
410.094	1.652222
410.451	1.687668
410.809	1.664917
411.166	1.665808
411.523	1.654965
411.881	1.683027
412.238	1.673965
412.595	1.672829
412.952	1.672079
413.310	1.679730
413.667	1.659546
414.024	1.669629
414.381	1.686125
414.738	1.683031
415.095	1.654078
415.452	1.672889
415.809	1.675312
416.165	1.660711
416.522	1.667003
416.879	1.656167
417.236	1.646785
417.593	1.653676
417.949	1.664397
418.306	1.664003
418.663	1.656736
419.019	1.617629
419.376	1.650075
419.732	1.646754
420.089	1.642164
420.445	1.654702
420.802	1.629974
421.158	1.639891
421.514	1.633823
421.871	1.633625
422.227	1.625036
422.583	1.639133
422.939	1.655527
423.295	1.604424
423.652	1.632826
424.008	1.626606
424.364	1.625246
424.720	1.628827
425.076	1.652658
425.432	1.634112
425.788	1.625552
426.143	1.639607
426.499	1.611709
426.855	1.612463
427.211	1.625114
427.567	1.628427
427.922	1.598287
428.278	1.597378
428.634	1.598641
428.989	1.605518
429.345	1.611481
429.700	1.601262
430.056	1.617620
430.411	1.601101
430.767	1.581001
431.122	1.601605
431.478	1.588015
431.833	1.598154
432.188	1.588864
432.543	1.608492
432.899	1.604614
433.254	1.593790
433.609	1.590497
433.964	1.598308
434.319	1.597824
434.674	1.573784
435.029	1.573527
435.384	1.573861
435.739	1.596698
436.094	1.549837
436.449	1.605799
436.804	1.565839
437.158	1.563649
437.513	1.554015
437.868	1.554309
438.223	1.555259
438.577	1.574913
438.932	1.549443
439.287	1.544869
439.641	1.552427
439.996	1.557711
440.350	1.544811
440.704	1.534224
441.059	1.547895
441.413	1.541009
441.768	1.539881
442.122	1.533986
442.476	1.526033
442.830	1.516586
443.185	1.526714
443.539	1.516461
443.893	1.519889
444.247	1.516443
444.601	1.520238
444.955	1.513209
445.309	1.500335
445.663	1.497956
446.017	1.506494
446.371	1.503749
446.724	1.499536
447.078	1.497862
447.432	1.491691
447.786	1.489203
448.139	1.496031
448.493	1.485081
448.847	1.479608
449.200	1.479733
449.554	1.475412
449.907	1.472296
450.261	1.460711
450.614	1.465505
450.968	1.461573
451.321	1.454548
451.674	1.452708
452.027	1.443134
452.381	1.448753
452.734	1.443443
453.087	1.426384
453.440	1.448350
453.793	1.436041
454.146	1.431984
454.499	1.432380
454.852	1.435329
455.205	1.407823
455.558	1.416711
455.911	1.417880
456.264	1.423446
456.617	1.407380
456.970	1.411157
457.322	1.411191
457.675	1.392231
458.028	1.406868
458.380	1.402616
458.733	1.380535
459.086	1.384019
459.438	1.386192
459.791	1.386178
460.143	1.388638
460.496	1.388712
460.848	1.367169
461.200	1.386825
461.553	1.365690
461.905	1.355612
462.257	1.368489
462.609	1.357690
462.961	1.358471
463.314	1.365174
463.666	1.356068
464.018	1.343781
464.370	1.337336
464.722	1.345190
465.074	1.331468
465.426	1.337934
465.777	1.327795
466.129	1.330461
466.481	1.326004
466.833	1.331474
467.184	1.314814
467.536	1.330337
467.888	1.325868
468.239	1.316884
468.591	1.309638
468.943	1.300665
469.294	1.315867
469.646	1.308635
469.997	1.315372
470.348	1.292342
470.700	1.294052
471.051	1.295037
471.402	1.277950
471.754	1.283973
472.105	1.273217
472.456	1.285609
472.807	1.289046
473.158	1.283113
473.509	1.267256
473.860	1.266814
474.211	1.263568
474.562	1.270476
474.913	1.270909
475.264	1.259036
475.615	1.263480
475.966	1.256486
476.316	1.243583
476.667	1.250923
477.018	1.256424
477.368	1.252401
477.719	1.248222
478.070	1.247666
478.420	1.242713
478.771	1.236766
479.121	1.235119
479.472	1.237776
479.822	1.231558
480.172	1.232507
480.523	1.220994
480.873	1.219797
481.223	1.216401
481.573	1.221089
481.924	1.221468
482.274	1.213215
482.624	1.205654
482.974	1.208053
483.324	1.210130
483.674	1.208329
484.024	1.211426
484.374	1.203276
484.724	1.200112
485.073	1.194319
485.423	1.189849
485.773	1.188851
486.123	1.184407
486.472	1.184202
486.822	1.181056
487.172	1.180594
487.521	1.177914
487.871	1.179223
488.220	1.177546
488.570	1.174220
488.919	1.170347
489.268	1.168410
489.618	1.161184
489.967	1.163989
490.316	1.161921
490.666	1.159787
491.015	1.156002
491.364	1.160652
491.713	1.151968
492.062	1.152497
492.411	1.148403
492.760	1.145169
493.109	1.143024
493.458	1.142371
493.807	1.140797
494.156	1.139496
494.505	1.127705
494.853	1.132613
495.202	1.135781
495.551	1.130243
495.900	1.125521
496.248	1.123348
496.597	1.121758
496.945	1.117172
497.294	1.124128
497.642	1.115065
497.991	1.111728
498.339	1.119317
498.688	1.105452
499.036	1.106047
499.384	1.107010
499.732	1.103467
500.081	1.104573
500.429	1.097027
500.777	1.096925
501.125	1.091509
501.473	1.095325
501.821	1.085787
502.169	1.088805
502.517	1.082557
502.865	1.081580
503.213	1.077318
503.561	1.077310
503.908	1.071310
504.256	1.069340
504.604	1.068087
504.952	1.066657
505.299	1.062081
505.647	1.067251
505.994	1.066879
506.342	1.057835
506.689	1.060808
507.037	1.057706
507.384	1.050700
507.732	1.053014
508.079	1.047696
508.426	1.044643
508.774	1.048719
509.121	1.048484
509.468	1.045261
509.815	1.036810
510.162	1.038767
510.509	1.039757
510.856	1.034307
511.203	1.036232
511.550	1.030533
511.897	1.030846
512.244	1.023194
512.591	1.022205
512.938	1.023830
513.284	1.020761
513.631	1.019141
513.978	1.020957
514.324	1.015628
514.671	1.016002
515.018	1.018404
515.364	1.010403
515.711	1.008423
516.057	1.006800
516.403	1.005725
516.750	1.003757
517.096	1.007582
517.443	1.001866
517.789	0.996332
518.135	0.997488
518.481	0.998733
518.827	0.997558
519.173	0.998050
519.519	0.991615
519.865	0.989697
520.211	0.996317
520.557	0.986257
520.903	0.989678
521.249	0.984182
521.595	0.981751
521.941	0.982702
522.287	0.983998
522.632	0.981049
522.978	0.978630
523.324	0.978636
523.669	0.974345
524.015	0.968948
524.360	0.972538
524.706	0.969011
525.051	0.971196
525.397	0.967917
525.742	0.968807
526.087	0.960445
526.433	0.963233
526.778	0.961399
527.123	0.962300
527.468	0.957808
527.813	0.951879
528.158	0.950735
528.504	0.951422
528.849	0.948964
529.193	0.945657
529.538	0.947344
529.883	0.946149
530.228	0.943124
530.573	0.944494
530.918	0.942856
531.263	0.936864
531.607	0.940916
531.952	0.935539
532.296	0.931857
532.641	0.936166
532.986	0.931240
533.330	0.926863
533.675	0.928416
534.019	0.921969
534.363	0.920583
534.708	0.920432
535.052	0.920949
535.396	0.916493
535.741	0.916379
536.085	0.912172
536.429	0.911630
536.773	0.908057
537.117	0.908463
537.461	0.906375
537.805	0.906596
538.149	0.902460
538.493	0.900370
538.837	0.895170
539.181	0.896370
539.524	0.894395
539.868	0.891013
540.212	0.890678
540.556	0.885487
540.899	0.885970
541.243	0.883559
541.586	0.881625
541.930	0.879405
542.273	0.874572
542.617	0.873166
542.960	0.870062
543.304	0.867299
543.647	0.865284
543.990	0.866196
544.333	0.862139
544.677	0.855785
545.020	0.855059
545.363	0.856085
545.706	0.851027
546.049	0.846625
546.392	0.845559
546.735	0.845874
547.078	0.840680
547.421	0.837331
547.764	0.834583
548.106	0.831310
548.449	0.828455
548.792	0.825635
549.135	0.822655
549.477	0.820971
549.820	0.815187
550.162	0.816533
550.505	0.816095
550.847	0.808504
551.190	0.803650
551.532	0.807251
551.875	0.796011
552.217	0.796806
552.559	0.793197
552.901	0.791198
553.244	0.788047
553.586	0.785636
553.928	0.782675
554.270	0.778222
554.612	0.772154
554.954	0.770677
555.296	0.768278
555.638	0.765910
555.980	0.762400
556.322	0.758516
556.663	0.750428
557.005	0.752926
557.347	0.746952
557.689	0.743933
558.030	0.741960
558.372	0.739375
558.713	0.737684
559.055	0.731650
559.396	0.727349
559.738	0.722627
560.079	0.718852
560.421	0.717984
560.762	0.712407
561.103	0.711624
561.444	0.704147
561.786	0.701000
562.127	0.696923
562.468	0.695640
562.809	0.689997
563.150	0.687165
563.491	0.686972
563.832	0.681538
564.173	0.678133
564.514	0.676569
564.855	0.670434
565.195	0.667744
565.536	0.664257
565.877	0.659457
566.218	0.657597
566.558	0.656391
566.899	0.651229
567.239	0.647997
567.580	0.645733
567.920	0.641748
568.261	0.637606
568.601	0.635376
568.941	0.630524
569.282	0.628393
569.622	0.624880
569.962	0.620884
570.302	0.618080
570.643	0.613539
570.983	0.611032
571.323	0.607402
571.663	0.604355
572.003	0.600178
572.343	0.596690
572.683	0.594210
573.022	0.588507
573.362	0.583394
573.702	0.561175
574.042	0.551275
574.381	0.542676
574.721	0.541231
575.061	0.537764
575.400	0.536496
575.740	0.531592
576.079	0.517327
576.419	0.490057
576.758	0.467197
577.097	0.450677
577.437	0.442860
577.776	0.436581
578.115	0.439267
578.454	0.443808
578.794	0.457503
579.133	0.467372
579.472	0.464543
579.811	0.438092
580.150	0.407133
580.489	0.375642
580.828	0.355026
581.167	0.341308
581.505	0.332983
581.844	0.346355
582.183	0.373061
582.522	0.412672
582.860	0.449739
583.199	0.475012
583.538	0.481298
583.876	0.474825
584.215	0.458262
584.553	0.446085
584.891	0.440163
585.230	0.441062
585.568	0.448275
585.906	0.456928
586.245	0.466789
586.583	0.475432
586.921	0.477422
587.259	0.478626
587.597	0.486179
587.935	0.489995
588.273	0.490888
588.611	0.490330
588.949	0.490463
589.287	0.488581
589.625	0.488376
589.963	0.488690
590.300	0.485066
590.638	0.482795
590.976	0.480796
591.313	0.480954
591.651	0.479135
591.989	0.476391
592.326	0.473964
592.664	0.471210
593.001	0.469914
593.338	0.468157
593.676	0.466586
594.013	0.467543
594.350	0.466376
594.687	0.466032
595.025	0.464243
595.362	0.463082
595.699	0.461313
596.036	0.460117
596.373	0.458617
596.710	0.457567
597.047	0.457124
597.384	0.455174
597.720	0.454240
598.057	0.452146
598.394	0.450861
598.731	0.450062
599.067	0.448375
599.404	0.446644
599.741	0.444810
600.077	0.444946
600.414	0.443456
600.750	0.443130
601.087	0.442655
601.423	0.441219
601.759	0.439258
602.096	0.438074
602.432	0.438127
602.768	0.436130
603.104	0.434942
603.440	0.433202
603.776	0.433517
604.112	0.432316
604.448	0.431727
604.784	0.429754
605.120	0.429723
605.456	0.427703
