Date	2021年06月15日火曜日 05時16分28秒
Spectrometers	USB2+H05879
ダーク	使用
リファレンス	使用
積分時間[msec]	10
平均回数	280
ｽﾑｰｼﾞﾝｸﾞ	10
Electrical Dark	USE
ピクセル数	2048
計測モード	吸光度
保存開始波長[nm]	190.664
保存終了波長[nm]	884.878
保存ﾋﾟｯﾁ波長[nm]	全波長

>>>>>>>>>> Data Start <<<<<<<<<<<<
190.664	0.000000
191.040	0.000000
191.415	0.000000
191.791	-2.357058
192.166	-0.389441
192.542	-0.958520
192.917	0.000000
193.293	-0.340622
193.668	-0.191404
194.044	-1.020805
194.419	0.000000
194.794	-1.315484
195.170	-1.230860
195.545	-1.149008
195.920	-1.014340
196.296	-0.901069
196.671	-0.732451
197.046	-0.581884
197.421	-0.530971
197.796	-0.522065
198.171	-0.489775
198.546	-0.435698
198.922	-0.380727
199.297	-0.355286
199.672	-0.331268
200.047	-0.311638
200.422	-0.287642
200.796	-0.285078
201.171	-0.273836
201.546	-0.267213
201.921	-0.252378
202.296	-0.243171
202.671	-0.212369
203.045	-0.182536
203.420	-0.166282
203.795	-0.157815
204.170	-0.149268
204.544	-0.135080
204.919	-0.138087
205.294	-0.129908
205.668	-0.118083
206.043	-0.100752
206.417	-0.096752
206.792	-0.088552
207.166	-0.073396
207.541	-0.065896
207.915	-0.059063
208.289	-0.037411
208.664	-0.026936
209.038	-0.013992
209.412	-0.001102
209.787	0.009948
210.161	0.025476
210.535	0.005246
210.909	0.009290
211.284	0.017438
211.658	0.020806
212.032	0.021192
212.406	-0.000739
212.780	0.008696
213.154	0.007148
213.528	0.004635
213.902	0.015541
214.276	0.014519
214.650	0.011238
215.024	-0.004746
215.398	-0.001439
215.772	0.012185
216.145	0.008905
216.519	0.009761
216.893	0.010009
217.267	0.008827
217.640	-0.000760
218.014	0.005714
218.388	0.023450
218.761	0.005947
219.135	0.013347
219.508	0.008542
219.882	-0.001811
220.256	0.011818
220.629	0.020139
221.003	0.019055
221.376	0.018664
221.749	0.004860
222.123	0.003132
222.496	-0.005998
222.869	0.003880
223.243	0.009073
223.616	0.005303
223.989	-0.005435
224.362	-0.003259
224.736	-0.007259
225.109	-0.009421
225.482	-0.002853
225.855	-0.003330
226.228	-0.011788
226.601	0.001209
226.974	0.008482
227.347	0.015514
227.720	0.019593
228.093	0.014446
228.466	0.003780
228.839	0.005193
229.212	0.003002
229.585	-0.007510
229.957	0.003751
230.330	0.007675
230.703	0.012614
231.076	0.011080
231.448	0.006366
231.821	0.019697
232.194	0.024575
232.566	0.024983
232.939	0.028456
233.311	0.020541
233.684	0.023358
234.056	0.022940
234.429	0.019539
234.801	0.010226
235.174	0.012729
235.546	0.018649
235.918	0.015454
236.291	0.017767
236.663	0.018171
237.035	0.021059
237.408	0.037486
237.780	0.043708
238.152	0.046628
238.524	0.037530
238.896	0.033537
239.268	0.032139
239.641	0.026337
240.013	0.030182
240.385	0.042251
240.757	0.048352
241.129	0.053729
241.500	0.054950
241.872	0.063403
242.244	0.066605
242.616	0.068019
242.988	0.073196
243.360	0.075810
243.731	0.091629
244.103	0.096967
244.475	0.102430
244.847	0.105509
245.218	0.107388
245.590	0.100902
245.961	0.105780
246.333	0.109649
246.705	0.111518
247.076	0.120667
247.448	0.119799
247.819	0.122848
248.190	0.129782
248.562	0.123649
248.933	0.121120
249.305	0.126882
249.676	0.130311
250.047	0.122706
250.418	0.122936
250.790	0.120609
251.161	0.118219
251.532	0.106323
251.903	0.102196
252.274	0.103205
252.645	0.109464
253.016	0.105480
253.387	0.101215
253.758	0.100836
254.129	0.103672
254.500	0.104503
254.871	0.100822
255.242	0.098535
255.613	0.091594
255.984	0.081088
256.355	0.084985
256.725	0.098032
257.096	0.091470
257.467	0.091461
257.838	0.102590
258.208	0.105005
258.579	0.104372
258.949	0.111002
259.320	0.111841
259.690	0.112602
260.061	0.112541
260.431	0.113305
260.802	0.121253
261.172	0.125125
261.543	0.125505
261.913	0.125796
262.283	0.131198
262.654	0.125784
263.024	0.131899
263.394	0.133936
263.764	0.135580
264.135	0.135250
264.505	0.132474
264.875	0.132323
265.245	0.125877
265.615	0.130650
265.985	0.128117
266.355	0.127161
266.725	0.117011
267.095	0.119876
267.465	0.121497
267.835	0.120476
268.205	0.113938
268.575	0.122437
268.944	0.125677
269.314	0.125157
269.684	0.127581
270.054	0.111181
270.423	0.117870
270.793	0.119041
271.163	0.126598
271.532	0.129440
271.902	0.135066
272.271	0.140403
272.641	0.143123
273.010	0.141475
273.380	0.127715
273.749	0.138793
274.119	0.142715
274.488	0.157328
274.857	0.160968
275.227	0.157572
275.596	0.157936
275.965	0.160665
276.335	0.148957
276.704	0.144194
277.073	0.145185
277.442	0.150505
277.811	0.169967
278.180	0.177912
278.549	0.184070
278.918	0.171643
279.287	0.170508
279.656	0.173221
280.025	0.168984
280.394	0.169105
280.763	0.176528
281.132	0.185549
281.501	0.179243
281.869	0.183076
282.238	0.180965
282.607	0.183617
282.976	0.191034
283.344	0.201415
283.713	0.202554
284.081	0.202091
284.450	0.206099
284.819	0.210762
285.187	0.207250
285.556	0.200743
285.924	0.195267
286.292	0.188923
286.661	0.197825
287.029	0.195832
287.398	0.184513
287.766	0.172191
288.134	0.171316
288.502	0.168376
288.871	0.166487
289.239	0.169217
289.607	0.168268
289.975	0.169292
290.343	0.173409
290.711	0.176563
291.079	0.169132
291.447	0.175045
291.815	0.179866
292.183	0.177778
292.551	0.177939
292.919	0.176438
293.287	0.178832
293.655	0.177313
294.022	0.178387
294.390	0.183303
294.758	0.191423
295.126	0.191548
295.493	0.200432
295.861	0.202544
296.229	0.206159
296.596	0.206390
296.964	0.209316
297.331	0.209262
297.699	0.212961
298.066	0.214146
298.434	0.211962
298.801	0.215940
299.168	0.214881
299.536	0.215436
299.903	0.216225
300.270	0.213033
300.638	0.226314
301.005	0.236576
301.372	0.249514
301.739	0.250348
302.106	0.252331
302.473	0.255615
302.840	0.269180
303.207	0.296839
303.574	0.313381
303.941	0.327467
304.308	0.346682
304.675	0.357460
305.042	0.376275
305.409	0.405798
305.776	0.417873
306.143	0.437988
306.509	0.454482
306.876	0.480362
307.243	0.508621
307.610	0.539836
307.976	0.564687
308.343	0.587751
308.709	0.608576
309.076	0.637566
309.442	0.664515
309.809	0.693426
310.175	0.728282
310.542	0.756326
310.908	0.771897
311.275	0.797300
311.641	0.819067
312.007	0.845204
312.373	0.876585
312.740	0.905689
313.106	0.922617
313.472	0.955958
313.838	0.985782
314.204	1.018411
314.570	1.033094
314.936	1.058525
315.302	1.080801
315.668	1.106485
316.034	1.136943
316.400	1.171352
316.766	1.192203
317.132	1.229509
317.498	1.253988
317.864	1.270802
318.230	1.292853
318.595	1.315460
318.961	1.335864
319.327	1.362619
319.692	1.384383
320.058	1.393600
320.424	1.408295
320.789	1.420012
321.155	1.436402
321.520	1.452231
321.886	1.469548
322.251	1.492068
322.616	1.502515
322.982	1.511750
323.347	1.520669
323.712	1.534379
324.078	1.539971
324.443	1.542501
324.808	1.544720
325.173	1.559313
325.539	1.568090
325.904	1.574678
326.269	1.584286
326.634	1.592363
326.999	1.598911
327.364	1.601528
327.729	1.610812
328.094	1.617438
328.459	1.627268
328.823	1.628902
329.188	1.638287
329.553	1.638894
329.918	1.644936
330.283	1.649331
330.647	1.659839
331.012	1.666886
331.377	1.665748
331.741	1.664660
332.106	1.673068
332.470	1.677112
332.835	1.676726
333.199	1.682003
333.564	1.686136
333.928	1.687850
334.293	1.688542
334.657	1.688984
335.021	1.691315
335.386	1.690875
335.750	1.688588
336.114	1.687426
336.478	1.690954
336.843	1.689802
337.207	1.692233
337.571	1.694763
337.935	1.696032
338.299	1.693445
338.663	1.694844
339.027	1.696950
339.391	1.699114
339.755	1.698903
340.119	1.699305
340.483	1.697268
340.846	1.696953
341.210	1.697241
341.574	1.699214
341.938	1.701475
342.301	1.702399
342.665	1.703534
343.029	1.706741
343.392	1.710995
343.756	1.712002
344.119	1.711862
344.483	1.712612
344.846	1.712959
345.210	1.713306
345.573	1.713828
345.937	1.714927
346.300	1.714799
346.663	1.715985
347.027	1.719133
347.390	1.720778
347.753	1.720528
348.116	1.723272
348.479	1.723862
348.843	1.723753
349.206	1.722589
349.569	1.720843
349.932	1.721269
350.295	1.721897
350.658	1.721716
351.021	1.723387
351.383	1.725276
351.746	1.726644
352.109	1.726959
352.472	1.728389
352.835	1.728096
353.197	1.728687
353.560	1.731081
353.923	1.730001
354.285	1.728996
354.648	1.727961
355.011	1.727826
355.373	1.730129
355.736	1.731894
356.098	1.732407
356.461	1.733063
356.823	1.732981
357.185	1.734790
357.548	1.735795
357.910	1.735910
358.272	1.734930
358.635	1.732126
358.997	1.730424
359.359	1.731511
359.721	1.731705
360.083	1.732046
360.445	1.732613
360.807	1.734045
361.169	1.732367
361.531	1.734365
361.893	1.734999
362.255	1.738111
362.617	1.739621
362.979	1.739589
363.341	1.737326
363.703	1.738241
364.064	1.739363
364.426	1.741205
364.788	1.741248
365.149	1.742123
365.511	1.743094
365.873	1.745152
366.234	1.747756
366.596	1.749374
366.957	1.749556
367.319	1.750236
367.680	1.749683
368.042	1.748387
368.403	1.747734
368.764	1.750060
369.126	1.749352
369.487	1.750881
369.848	1.749327
370.209	1.749526
370.570	1.749518
370.931	1.751156
371.293	1.751646
371.654	1.752125
372.015	1.753473
372.376	1.754584
372.737	1.755285
373.098	1.755371
373.458	1.755178
373.819	1.756102
374.180	1.758115
374.541	1.757909
374.902	1.759621
375.263	1.761573
375.623	1.763300
375.984	1.766451
376.345	1.766929
376.705	1.768696
377.066	1.770763
377.426	1.770377
377.787	1.769134
378.147	1.769721
378.508	1.769987
378.868	1.769901
379.228	1.770665
379.589	1.769278
379.949	1.768915
380.309	1.769892
380.670	1.771278
381.030	1.772330
381.390	1.772866
381.750	1.771821
382.110	1.772700
382.470	1.772905
382.830	1.772592
383.190	1.774133
383.550	1.773219
383.910	1.773498
384.270	1.774970
384.630	1.775504
384.990	1.777906
385.350	1.779986
385.709	1.781111
386.069	1.783002
386.429	1.783039
386.788	1.784519
387.148	1.786056
387.508	1.788752
387.867	1.789389
388.227	1.789403
388.586	1.789434
388.946	1.790080
389.305	1.791809
389.665	1.793109
390.024	1.793942
390.383	1.794681
390.743	1.796172
391.102	1.796743
391.461	1.796455
391.820	1.797569
392.179	1.796693
392.539	1.797529
392.898	1.799242
393.257	1.799566
393.616	1.801770
393.975	1.802683
394.334	1.804059
394.693	1.804713
395.051	1.803435
395.410	1.803768
395.769	1.804677
396.128	1.806944
396.487	1.806379
396.845	1.805701
397.204	1.806584
397.563	1.806328
397.921	1.807374
398.280	1.806408
398.638	1.804529
398.997	1.805409
399.355	1.804225
399.714	1.805000
400.072	1.802858
400.431	1.801056
400.789	1.801018
401.147	1.799040
401.506	1.798501
401.864	1.796880
402.222	1.796281
402.580	1.795416
402.938	1.795089
403.297	1.794441
403.655	1.792291
404.013	1.792746
404.371	1.792629
404.729	1.790594
405.087	1.790413
405.444	1.789200
405.802	1.787289
406.160	1.788262
406.518	1.788094
406.876	1.788144
407.233	1.786790
407.591	1.787633
407.949	1.787910
408.306	1.787910
408.664	1.786578
409.022	1.786464
409.379	1.785993
409.737	1.785272
410.094	1.784858
410.451	1.783914
410.809	1.783932
411.166	1.783056
411.523	1.783350
411.881	1.782642
412.238	1.782199
412.595	1.780180
412.952	1.780503
413.310	1.780985
413.667	1.780968
414.024	1.781602
414.381	1.780520
414.738	1.779133
415.095	1.777355
415.452	1.775656
415.809	1.774133
416.165	1.773926
416.522	1.772922
416.879	1.771014
417.236	1.769769
417.593	1.769410
417.949	1.768983
418.306	1.768165
418.663	1.769502
419.019	1.767666
419.376	1.766836
419.732	1.766310
420.089	1.767065
420.445	1.766122
420.802	1.765987
421.158	1.764151
421.514	1.760992
421.871	1.759882
422.227	1.759054
422.583	1.759218
422.939	1.758192
423.295	1.757653
423.652	1.756100
424.008	1.754583
424.364	1.753635
424.720	1.752672
425.076	1.752443
425.432	1.750999
425.788	1.750000
426.143	1.748126
426.499	1.746224
426.855	1.746185
427.211	1.744630
427.567	1.742683
427.922	1.741641
428.278	1.738608
428.634	1.738316
428.989	1.736938
429.345	1.734833
429.700	1.733094
430.056	1.731286
430.411	1.731279
430.767	1.730121
431.122	1.729225
431.478	1.728407
431.833	1.727284
432.188	1.725131
432.543	1.722976
432.899	1.720274
433.254	1.717423
433.609	1.714890
433.964	1.714410
434.319	1.711678
434.674	1.709798
435.029	1.707881
435.384	1.705196
435.739	1.703800
436.094	1.702201
436.449	1.700917
436.804	1.700223
437.158	1.698048
437.513	1.696290
437.868	1.693488
438.223	1.691549
438.577	1.688762
438.932	1.687290
439.287	1.685076
439.641	1.683078
439.996	1.681016
440.350	1.679478
440.704	1.677941
441.059	1.675977
441.413	1.671956
441.768	1.669174
442.122	1.667657
442.476	1.664745
442.830	1.662321
443.185	1.659974
443.539	1.656969
443.893	1.654499
444.247	1.651135
444.601	1.649907
444.955	1.647014
445.309	1.644296
445.663	1.640982
446.017	1.638473
446.371	1.634872
446.724	1.632210
447.078	1.629754
447.432	1.627116
447.786	1.624127
448.139	1.620403
448.493	1.617395
448.847	1.614429
449.200	1.611500
449.554	1.608146
449.907	1.605581
450.261	1.601876
450.614	1.598616
450.968	1.595237
451.321	1.591993
451.674	1.588769
452.027	1.584325
452.381	1.580724
452.734	1.576993
453.087	1.573237
453.440	1.569135
453.793	1.565426
454.146	1.561737
454.499	1.558322
454.852	1.554266
455.205	1.550496
455.558	1.547698
455.911	1.544125
456.264	1.540594
456.617	1.537797
456.970	1.534079
457.322	1.530873
457.675	1.527974
458.028	1.525345
458.380	1.522182
458.733	1.519177
459.086	1.516243
459.438	1.513551
459.791	1.509845
460.143	1.507207
460.496	1.504974
460.848	1.502301
461.200	1.499282
461.553	1.496208
461.905	1.493225
462.257	1.490038
462.609	1.487186
462.961	1.483912
463.314	1.480489
463.666	1.477976
464.018	1.474622
464.370	1.471832
464.722	1.468523
465.074	1.465327
465.426	1.461785
465.777	1.458954
466.129	1.455686
466.481	1.452726
466.833	1.449769
467.184	1.447285
467.536	1.444197
467.888	1.440869
468.239	1.437980
468.591	1.435073
468.943	1.431440
469.294	1.427786
469.646	1.424265
469.997	1.420371
470.348	1.417031
470.700	1.414319
471.051	1.411437
471.402	1.408763
471.754	1.405573
472.105	1.403040
472.456	1.400419
472.807	1.397835
473.158	1.395396
473.509	1.392897
473.860	1.390317
474.211	1.387833
474.562	1.385672
474.913	1.382952
475.264	1.380051
475.615	1.377230
475.966	1.374619
476.316	1.372078
476.667	1.369607
477.018	1.367268
477.368	1.365102
477.719	1.362590
478.070	1.359910
478.420	1.357266
478.771	1.354456
479.121	1.351878
479.472	1.349504
479.822	1.347319
480.172	1.344837
480.523	1.342075
480.873	1.339346
481.223	1.336207
481.573	1.333300
481.924	1.330572
482.274	1.327794
482.624	1.325443
482.974	1.323429
483.324	1.321652
483.674	1.320225
484.024	1.318738
484.374	1.317302
484.724	1.315550
485.073	1.313980
485.423	1.312406
485.773	1.310835
486.123	1.309308
486.472	1.307672
486.822	1.306051
487.172	1.304459
487.521	1.302867
487.871	1.301255
488.220	1.299572
488.570	1.298058
488.919	1.295888
489.268	1.293092
489.618	1.290233
489.967	1.286767
490.316	1.282855
490.666	1.278993
491.015	1.275000
491.364	1.271342
491.713	1.267874
492.062	1.265020
492.411	1.262095
492.760	1.259442
493.109	1.256808
493.458	1.254300
493.807	1.251929
494.156	1.249123
494.505	1.246180
494.853	1.243650
495.202	1.241124
495.551	1.238704
495.900	1.236095
496.248	1.233374
496.597	1.230891
496.945	1.228574
497.294	1.226423
497.642	1.223975
497.991	1.221306
498.339	1.218632
498.688	1.216303
499.036	1.214149
499.384	1.211821
499.732	1.209473
500.081	1.207194
500.429	1.204614
500.777	1.202247
501.125	1.199985
501.473	1.197789
501.821	1.195693
502.169	1.193602
502.517	1.191415
502.865	1.189138
503.213	1.186644
503.561	1.184569
503.908	1.182513
504.256	1.180136
504.604	1.177741
504.952	1.175601
505.299	1.173392
505.647	1.171339
505.994	1.169076
506.342	1.166626
506.689	1.164438
507.037	1.162382
507.384	1.159999
507.732	1.157984
508.079	1.155702
508.426	1.153558
508.774	1.151313
509.121	1.149286
509.468	1.147168
509.815	1.145079
510.162	1.142982
510.509	1.141051
510.856	1.138928
511.203	1.137030
511.550	1.134907
511.897	1.133023
512.244	1.131142
512.591	1.128909
512.938	1.127022
513.284	1.125076
513.631	1.123356
513.978	1.121388
514.324	1.119446
514.671	1.117589
515.018	1.115595
515.364	1.113888
515.711	1.111985
516.057	1.110171
516.403	1.108222
516.750	1.106352
517.096	1.104636
517.443	1.102901
517.789	1.101056
518.135	1.099471
518.481	1.097419
518.827	1.095883
519.173	1.094106
519.519	1.092169
519.865	1.090622
520.211	1.088914
520.557	1.087189
520.903	1.085204
521.249	1.083426
521.595	1.081615
521.941	1.079666
522.287	1.077875
522.632	1.075724
522.978	1.073831
523.324	1.071970
523.669	1.070219
524.015	1.068189
524.360	1.066108
524.706	1.064294
525.051	1.062632
525.397	1.060709
525.742	1.058955
526.087	1.057344
526.433	1.055604
526.778	1.054151
527.123	1.052442
527.468	1.050626
527.813	1.048941
528.158	1.047231
528.504	1.045340
528.849	1.043503
529.193	1.041918
529.538	1.040250
529.883	1.038350
530.228	1.036214
530.573	1.034383
530.918	1.032381
531.263	1.030595
531.607	1.028912
531.952	1.026914
532.296	1.024950
532.641	1.023242
532.986	1.021171
533.330	1.019060
533.675	1.017382
534.019	1.015405
534.363	1.013497
534.708	1.011513
535.052	1.009498
535.396	1.007594
535.741	1.005813
536.085	1.003674
536.429	1.001461
536.773	0.999237
537.117	0.997221
537.461	0.995109
537.805	0.992810
538.149	0.990522
538.493	0.988019
538.837	0.985672
539.181	0.983289
539.524	0.980885
539.868	0.978326
540.212	0.975908
540.556	0.973603
540.899	0.971002
541.243	0.968505
541.586	0.966034
541.930	0.963613
542.273	0.961117
542.617	0.958579
542.960	0.955938
543.304	0.953440
543.647	0.950805
543.990	0.948053
544.333	0.945207
544.677	0.942488
545.020	0.939793
545.363	0.937127
545.706	0.934401
546.049	0.931601
546.392	0.928920
546.735	0.926123
547.078	0.923287
547.421	0.920465
547.764	0.917468
548.106	0.914239
548.449	0.910912
548.792	0.907814
549.135	0.904535
549.477	0.901230
549.820	0.898200
550.162	0.895161
550.505	0.891920
550.847	0.888758
551.190	0.885353
551.532	0.881891
551.875	0.878204
552.217	0.874479
552.559	0.870748
552.901	0.867277
553.244	0.863723
553.586	0.860308
553.928	0.857062
554.270	0.853795
554.612	0.850667
554.954	0.847469
555.296	0.844124
555.638	0.840805
555.980	0.837049
556.322	0.833276
556.663	0.829469
557.005	0.825396
557.347	0.821455
557.689	0.817558
558.030	0.813748
558.372	0.810022
558.713	0.806338
559.055	0.802604
559.396	0.798903
559.738	0.795071
560.079	0.791192
560.421	0.787359
560.762	0.783563
561.103	0.779866
561.444	0.776071
561.786	0.772351
562.127	0.768653
562.468	0.765054
562.809	0.761361
563.150	0.757578
563.491	0.753711
563.832	0.749578
564.173	0.745500
564.514	0.741243
564.855	0.736953
565.195	0.732440
565.536	0.728035
565.877	0.723731
566.218	0.719494
566.558	0.715373
566.899	0.711369
567.239	0.707600
567.580	0.704066
567.920	0.700802
568.261	0.697716
568.601	0.694858
568.941	0.692046
569.282	0.689356
569.622	0.686733
569.962	0.684139
570.302	0.681567
570.643	0.679040
570.983	0.676693
571.323	0.674341
571.663	0.672038
572.003	0.669753
572.343	0.667495
572.683	0.665057
573.022	0.662539
573.362	0.659974
573.702	0.657283
574.042	0.654693
574.381	0.652108
574.721	0.649654
575.061	0.647230
575.400	0.644966
575.740	0.642766
576.079	0.640602
576.419	0.638300
576.758	0.635934
577.097	0.633433
577.437	0.630850
577.776	0.628222
578.115	0.625566
578.454	0.623092
578.794	0.620873
579.133	0.618849
579.472	0.616963
579.811	0.615268
580.150	0.613556
580.489	0.611783
580.828	0.609938
581.167	0.608022
581.505	0.606126
581.844	0.604192
582.183	0.602255
582.522	0.600351
582.860	0.598491
583.199	0.596729
583.538	0.595063
583.876	0.593413
584.215	0.591789
584.553	0.590153
584.891	0.588508
585.230	0.586881
585.568	0.585158
585.906	0.583349
586.245	0.581586
586.583	0.579908
586.921	0.578346
587.259	0.576945
587.597	0.575613
587.935	0.574243
588.273	0.572752
588.611	0.571068
588.949	0.569268
589.287	0.567468
589.625	0.565590
589.963	0.563827
590.300	0.562101
590.638	0.560490
590.976	0.558906
591.313	0.557298
591.651	0.555678
591.989	0.554124
592.326	0.552593
592.664	0.551236
593.001	0.549898
593.338	0.548660
593.676	0.547564
594.013	0.546470
594.350	0.545391
594.687	0.544332
595.025	0.543360
595.362	0.542358
595.699	0.541249
596.036	0.540153
596.373	0.539001
596.710	0.537883
597.047	0.536683
597.384	0.535525
597.720	0.534367
598.057	0.533184
598.394	0.532032
598.731	0.530895
599.067	0.529768
599.404	0.528646
599.741	0.527502
600.077	0.526464
600.414	0.525501
600.750	0.524586
601.087	0.523699
601.423	0.522801
601.759	0.521948
602.096	0.521012
602.432	0.520132
602.768	0.519274
603.104	0.518400
603.440	0.517524
603.776	0.516676
604.112	0.515864
