Date	2021年06月15日火曜日 04時26分22秒
Spectrometers	USB2+H05879
ダーク	使用
リファレンス	使用
積分時間[msec]	10
平均回数	280
ｽﾑｰｼﾞﾝｸﾞ	10
Electrical Dark	USE
ピクセル数	2048
計測モード	吸光度
保存開始波長[nm]	190.664
保存終了波長[nm]	884.878
保存ﾋﾟｯﾁ波長[nm]	全波長

>>>>>>>>>> Data Start <<<<<<<<<<<<
190.664	0.000000
191.040	0.000000
191.415	0.000000
191.791	-2.340163
192.166	-0.616816
192.542	-0.787431
192.917	0.000000
193.293	-0.525259
193.668	-0.322732
194.044	-0.959284
194.419	0.000000
194.794	-1.399319
195.170	-1.320223
195.545	-1.234488
195.920	-1.112117
196.296	-0.990279
196.671	-0.835741
197.046	-0.674178
197.421	-0.623336
197.796	-0.624257
198.171	-0.591802
198.546	-0.550797
198.922	-0.503577
199.297	-0.484479
199.672	-0.465556
200.047	-0.440692
200.422	-0.411902
200.796	-0.399471
201.171	-0.381578
201.546	-0.385338
201.921	-0.376533
202.296	-0.367488
202.671	-0.344139
203.045	-0.322374
203.420	-0.306821
203.795	-0.289288
204.170	-0.286302
204.544	-0.277677
204.919	-0.278416
205.294	-0.272040
205.668	-0.251895
206.043	-0.242506
206.417	-0.246238
206.792	-0.235488
207.166	-0.227097
207.541	-0.215673
207.915	-0.215962
208.289	-0.202044
208.664	-0.202144
209.038	-0.203636
209.412	-0.186805
209.787	-0.174244
210.161	-0.165306
210.535	-0.162286
210.909	-0.145902
211.284	-0.140926
211.658	-0.150074
212.032	-0.153089
212.406	-0.163912
212.780	-0.162889
213.154	-0.168943
213.528	-0.175660
213.902	-0.172905
214.276	-0.164669
214.650	-0.166121
215.024	-0.160154
215.398	-0.160508
215.772	-0.157703
216.145	-0.158296
216.519	-0.150271
216.893	-0.146450
217.267	-0.152220
217.640	-0.155526
218.014	-0.140361
218.388	-0.135263
218.761	-0.150426
219.135	-0.146758
219.508	-0.146367
219.882	-0.150311
220.256	-0.145287
220.629	-0.140190
221.003	-0.141103
221.376	-0.136855
221.749	-0.139443
222.123	-0.144482
222.496	-0.147248
222.869	-0.146385
223.243	-0.141165
223.616	-0.137253
223.989	-0.141844
224.362	-0.133787
224.736	-0.135073
225.109	-0.129854
225.482	-0.129454
225.855	-0.134371
226.228	-0.138906
226.601	-0.128396
226.974	-0.123672
227.347	-0.113933
227.720	-0.105306
228.093	-0.104562
228.466	-0.115536
228.839	-0.110521
229.212	-0.116265
229.585	-0.128373
229.957	-0.125509
230.330	-0.118831
230.703	-0.110111
231.076	-0.116877
231.448	-0.117359
231.821	-0.117856
232.194	-0.124949
232.566	-0.129619
232.939	-0.137749
233.311	-0.141284
233.684	-0.141831
234.056	-0.142114
234.429	-0.142099
234.801	-0.144744
235.174	-0.144560
235.546	-0.151548
235.918	-0.156141
236.291	-0.145309
236.663	-0.136451
237.035	-0.134855
237.408	-0.119885
237.780	-0.115563
238.152	-0.118684
238.524	-0.128216
238.896	-0.125242
239.268	-0.124985
239.641	-0.122603
240.013	-0.113536
240.385	-0.104527
240.757	-0.101033
241.129	-0.100105
241.500	-0.102547
241.872	-0.096474
242.244	-0.096400
242.616	-0.101904
242.988	-0.098597
243.360	-0.084261
243.731	-0.071534
244.103	-0.077251
244.475	-0.088634
244.847	-0.082435
245.218	-0.076391
245.590	-0.071124
245.961	-0.072183
246.333	-0.070016
246.705	-0.067715
247.076	-0.062611
247.448	-0.058353
247.819	-0.063713
248.190	-0.057538
248.562	-0.059952
248.933	-0.055796
249.305	-0.054823
249.676	-0.052072
250.047	-0.058859
250.418	-0.053406
250.790	-0.055434
251.161	-0.061490
251.532	-0.069542
251.903	-0.071198
252.274	-0.064840
252.645	-0.062265
253.016	-0.068751
253.387	-0.072853
253.758	-0.068148
254.129	-0.067764
254.500	-0.064305
254.871	-0.065908
255.242	-0.071330
255.613	-0.075432
255.984	-0.078989
256.355	-0.072665
256.725	-0.068484
257.096	-0.070017
257.467	-0.072889
257.838	-0.070588
258.208	-0.072918
258.579	-0.068036
258.949	-0.069395
259.320	-0.057568
259.690	-0.049623
260.061	-0.043545
260.431	-0.040966
260.802	-0.039391
261.172	-0.037975
261.543	-0.033773
261.913	-0.035338
262.283	-0.035869
262.654	-0.037869
263.024	-0.040741
263.394	-0.036013
263.764	-0.033532
264.135	-0.033603
264.505	-0.036178
264.875	-0.025960
265.245	-0.027627
265.615	-0.024365
265.985	-0.018281
266.355	-0.014365
266.725	-0.013209
267.095	-0.019096
267.465	-0.019415
267.835	-0.026970
268.205	-0.035002
268.575	-0.031912
268.944	-0.024217
269.314	-0.031268
269.684	-0.023671
270.054	-0.033224
270.423	-0.028746
270.793	-0.017999
271.163	-0.014938
271.532	-0.018453
271.902	-0.014771
272.271	-0.016109
272.641	-0.021962
273.010	-0.023098
273.380	-0.023370
273.749	-0.028257
274.119	-0.030031
274.488	-0.020794
274.857	-0.018316
275.227	-0.016906
275.596	-0.010505
275.965	-0.002213
276.335	0.001157
276.704	-0.004358
277.073	-0.004211
277.442	-0.004570
277.811	-0.000186
278.180	0.003757
278.549	0.001979
278.918	0.001772
279.287	0.006325
279.656	0.005157
280.025	0.006527
280.394	0.000377
280.763	0.004640
281.132	0.008938
281.501	0.013373
281.869	0.011445
282.238	0.006250
282.607	0.001096
282.976	-0.001131
283.344	0.000694
283.713	-0.003221
284.081	-0.003985
284.450	0.001326
284.819	0.009542
285.187	0.011692
285.556	0.016856
285.924	0.008885
286.292	0.005603
286.661	0.001490
287.029	-0.004955
287.398	0.003447
287.766	0.001197
288.134	0.005956
288.502	0.005749
288.871	0.006447
289.239	0.011025
289.607	0.010915
289.975	0.011695
290.343	0.019741
290.711	0.020791
291.079	0.016106
291.447	0.019923
291.815	0.021418
292.183	0.019708
292.551	0.017897
292.919	0.015200
293.287	0.016947
293.655	0.020645
294.022	0.023422
294.390	0.030282
294.758	0.037613
295.126	0.032721
295.493	0.041077
295.861	0.051009
296.229	0.046548
296.596	0.045466
296.964	0.042603
297.331	0.046223
297.699	0.053525
298.066	0.053343
298.434	0.057474
298.801	0.059614
299.168	0.058711
299.536	0.056925
299.903	0.061695
300.270	0.065241
300.638	0.072047
301.005	0.083448
301.372	0.085129
301.739	0.088564
302.106	0.091227
302.473	0.100580
302.840	0.108507
303.207	0.122653
303.574	0.128973
303.941	0.146780
304.308	0.159994
304.675	0.170819
305.042	0.183589
305.409	0.199952
305.776	0.212282
306.143	0.229161
306.509	0.250024
306.876	0.280670
307.243	0.302843
307.610	0.326679
307.976	0.346696
308.343	0.373385
308.709	0.393804
309.076	0.425386
309.442	0.453567
309.809	0.481650
310.175	0.506608
310.542	0.530301
310.908	0.550060
311.275	0.572440
311.641	0.595186
312.007	0.624052
312.373	0.651042
312.740	0.672045
313.106	0.690064
313.472	0.718043
313.838	0.741034
314.204	0.762723
314.570	0.772599
314.936	0.790731
315.302	0.806544
315.668	0.822738
316.034	0.840799
316.400	0.863905
316.766	0.878048
317.132	0.896706
317.498	0.909366
317.864	0.918026
318.230	0.930529
318.595	0.941986
318.961	0.953137
319.327	0.964877
319.692	0.970669
320.058	0.976578
320.424	0.986906
320.789	0.995724
321.155	1.002337
321.520	1.009605
321.886	1.017659
322.251	1.025051
322.616	1.032432
322.982	1.038325
323.347	1.044624
323.712	1.051251
324.078	1.054185
324.443	1.057677
324.808	1.058521
325.173	1.062134
325.539	1.066519
325.904	1.068394
326.269	1.071477
326.634	1.073295
326.999	1.075195
327.364	1.076924
327.729	1.079691
328.094	1.080963
328.459	1.082317
328.823	1.083466
329.188	1.085302
329.553	1.085098
329.918	1.087563
330.283	1.088752
330.647	1.089379
331.012	1.089323
331.377	1.087849
331.741	1.086546
332.106	1.087316
332.470	1.088065
332.835	1.087522
333.199	1.087288
333.564	1.087638
333.928	1.087411
334.293	1.088587
334.657	1.088244
335.021	1.088964
335.386	1.088807
335.750	1.088555
336.114	1.088105
336.478	1.087414
336.843	1.086401
337.207	1.086344
337.571	1.086616
337.935	1.086246
338.299	1.085822
338.663	1.085847
339.027	1.085656
339.391	1.086060
339.755	1.085685
340.119	1.084903
340.483	1.085252
340.846	1.085790
341.210	1.085955
341.574	1.086267
341.938	1.086332
342.301	1.086583
342.665	1.086703
343.029	1.086858
343.392	1.087363
343.756	1.087974
344.119	1.088948
344.483	1.090020
344.846	1.090488
345.210	1.090525
345.573	1.090691
345.937	1.091364
346.300	1.092154
346.663	1.093258
347.027	1.094446
347.390	1.095102
347.753	1.095957
348.116	1.096544
348.479	1.096953
348.843	1.097214
349.206	1.097237
349.569	1.097193
349.932	1.097784
350.295	1.098076
350.658	1.098712
351.021	1.099926
351.383	1.100611
351.746	1.101097
352.109	1.101520
352.472	1.102021
352.835	1.102526
353.197	1.103150
353.560	1.103796
353.923	1.104004
354.285	1.104428
354.648	1.104519
355.011	1.104913
355.373	1.105933
355.736	1.106641
356.098	1.107154
356.461	1.107848
356.823	1.108520
357.185	1.109535
357.548	1.110254
357.910	1.110649
358.272	1.111063
358.635	1.110384
358.997	1.110551
359.359	1.111386
359.721	1.111674
360.083	1.112408
360.445	1.113138
360.807	1.113829
361.169	1.114311
361.531	1.115197
361.893	1.115657
362.255	1.116167
362.617	1.116456
362.979	1.116885
363.341	1.116856
363.703	1.117546
364.064	1.118348
364.426	1.119204
364.788	1.119566
365.149	1.120004
365.511	1.120798
365.873	1.121631
366.234	1.122426
366.596	1.123090
366.957	1.123160
367.319	1.123756
367.680	1.124292
368.042	1.124322
368.403	1.124850
368.764	1.125163
369.126	1.125160
369.487	1.125456
369.848	1.125370
370.209	1.125966
370.570	1.126063
370.931	1.126677
371.293	1.126756
371.654	1.127120
372.015	1.127401
372.376	1.127996
372.737	1.128563
373.098	1.128637
373.458	1.128654
373.819	1.129573
374.180	1.130750
374.541	1.131191
374.902	1.131646
375.263	1.131979
375.623	1.132285
375.984	1.132814
376.345	1.133255
376.705	1.133986
377.066	1.134792
377.426	1.135477
377.787	1.135815
378.147	1.136284
378.508	1.136542
378.868	1.137183
379.228	1.137538
379.589	1.138041
379.949	1.138134
380.309	1.138372
380.670	1.138967
381.030	1.139443
381.390	1.139487
381.750	1.138869
382.110	1.139022
382.470	1.139136
382.830	1.139460
383.190	1.139719
383.550	1.139811
383.910	1.140137
384.270	1.140050
384.630	1.139882
384.990	1.140105
385.350	1.140253
385.709	1.140469
386.069	1.140739
386.429	1.140519
386.788	1.140573
387.148	1.140383
387.508	1.140584
387.867	1.140440
388.227	1.140086
388.586	1.139806
388.946	1.139861
389.305	1.139851
389.665	1.139966
390.024	1.139790
390.383	1.139510
390.743	1.139304
391.102	1.138841
391.461	1.138726
391.820	1.138752
392.179	1.138122
392.539	1.137626
392.898	1.137440
393.257	1.137087
393.616	1.136667
393.975	1.136348
394.334	1.136119
394.693	1.135748
395.051	1.135376
395.410	1.135174
395.769	1.135052
396.128	1.134604
396.487	1.134000
396.845	1.133597
397.204	1.132761
397.563	1.131912
397.921	1.131226
398.280	1.130333
398.638	1.129503
398.997	1.128502
399.355	1.127350
399.714	1.126624
400.072	1.125673
400.431	1.124509
400.789	1.123483
401.147	1.122530
401.506	1.121420
401.864	1.119980
402.222	1.118634
402.580	1.116998
402.938	1.115722
403.297	1.114343
403.655	1.113262
404.013	1.111737
404.371	1.110434
404.729	1.109139
405.087	1.107885
405.444	1.106556
405.802	1.105072
406.160	1.103860
406.518	1.102469
406.876	1.101114
407.233	1.099779
407.591	1.098334
407.949	1.097130
408.306	1.095726
408.664	1.094207
409.022	1.092783
409.379	1.091266
409.737	1.089683
410.094	1.088066
410.451	1.086269
410.809	1.084589
411.166	1.082938
411.523	1.081582
411.881	1.079854
412.238	1.078302
412.595	1.076568
412.952	1.074802
413.310	1.073227
413.667	1.071648
414.024	1.070089
414.381	1.068434
414.738	1.066665
415.095	1.064788
415.452	1.062859
415.809	1.060811
416.165	1.058856
416.522	1.056761
416.879	1.054855
417.236	1.052666
417.593	1.050713
417.949	1.048489
418.306	1.046413
418.663	1.044618
419.019	1.042659
419.376	1.040614
419.732	1.038457
420.089	1.036717
420.445	1.034670
420.802	1.033033
421.158	1.031099
421.514	1.028905
421.871	1.026783
422.227	1.024716
422.583	1.022995
422.939	1.020796
423.295	1.018845
423.652	1.016768
424.008	1.014716
424.364	1.012382
424.720	1.010510
425.076	1.008329
425.432	1.006091
425.788	1.003827
426.143	1.001263
426.499	0.998564
426.855	0.996257
427.211	0.993815
427.567	0.991305
427.922	0.989043
428.278	0.986066
428.634	0.983631
428.989	0.981411
429.345	0.979249
429.700	0.977002
430.056	0.974813
430.411	0.972610
430.767	0.970242
431.122	0.967740
431.478	0.965300
431.833	0.962958
432.188	0.960215
432.543	0.957655
432.899	0.955124
433.254	0.952175
433.609	0.949382
433.964	0.946822
434.319	0.943843
434.674	0.941043
435.029	0.938122
435.384	0.935311
435.739	0.932703
436.094	0.930044
436.449	0.927368
436.804	0.924758
437.158	0.922099
437.513	0.919085
437.868	0.916182
438.223	0.913260
438.577	0.910444
438.932	0.907893
439.287	0.905128
439.641	0.902611
439.996	0.899806
440.350	0.897162
440.704	0.894616
441.059	0.892017
441.413	0.889244
441.768	0.886533
442.122	0.883892
442.476	0.881297
442.830	0.878616
443.185	0.876183
443.539	0.873589
443.893	0.871030
444.247	0.868176
444.601	0.865487
444.955	0.862780
445.309	0.860035
445.663	0.857323
446.017	0.854723
446.371	0.851707
446.724	0.848866
447.078	0.845973
447.432	0.843235
447.786	0.840315
448.139	0.837493
448.493	0.834671
448.847	0.831868
449.200	0.828944
449.554	0.826195
449.907	0.823401
450.261	0.820523
450.614	0.817701
450.968	0.814818
451.321	0.811814
451.674	0.809029
452.027	0.806019
452.381	0.803190
452.734	0.800442
453.087	0.797553
453.440	0.794573
453.793	0.791813
454.146	0.788912
454.499	0.786174
454.852	0.783286
455.205	0.780466
455.558	0.777823
455.911	0.775070
456.264	0.772303
456.617	0.769822
456.970	0.767263
457.322	0.764831
457.675	0.762481
458.028	0.760075
458.380	0.757844
458.733	0.755497
459.086	0.753193
459.438	0.751126
459.791	0.748809
460.143	0.746503
460.496	0.744214
460.848	0.741814
461.200	0.739417
461.553	0.737171
461.905	0.734857
462.257	0.732554
462.609	0.730375
462.961	0.728151
463.314	0.726058
463.666	0.723993
464.018	0.721759
464.370	0.719702
464.722	0.717598
465.074	0.715590
465.426	0.713666
465.777	0.711699
466.129	0.709861
466.481	0.708023
466.833	0.706124
467.184	0.704326
467.536	0.702298
467.888	0.700430
468.239	0.698361
468.591	0.696289
468.943	0.693982
469.294	0.691668
469.646	0.689505
469.997	0.687157
470.348	0.684835
470.700	0.682648
471.051	0.680486
471.402	0.678531
471.754	0.676510
472.105	0.674694
472.456	0.672837
472.807	0.671070
473.158	0.669252
473.509	0.667529
473.860	0.665822
474.211	0.664197
474.562	0.662523
474.913	0.660936
475.264	0.659193
475.615	0.657677
475.966	0.656063
476.316	0.654439
476.667	0.652828
477.018	0.651212
477.368	0.649680
477.719	0.648150
478.070	0.646561
478.420	0.644993
478.771	0.643418
479.121	0.641840
479.472	0.640237
479.822	0.638614
480.172	0.636883
480.523	0.635239
480.873	0.633290
481.223	0.631098
481.573	0.628858
481.924	0.626717
482.274	0.624626
482.624	0.622786
482.974	0.621151
483.324	0.619805
483.674	0.618721
484.024	0.617623
484.374	0.616541
484.724	0.615538
485.073	0.614539
485.423	0.613505
485.773	0.612507
486.123	0.611512
486.472	0.610494
486.822	0.609440
487.172	0.608447
487.521	0.607470
487.871	0.606483
488.220	0.605536
488.570	0.604502
488.919	0.603241
489.268	0.601755
489.618	0.600154
489.967	0.598206
490.316	0.596042
490.666	0.593695
491.015	0.591421
491.364	0.589346
491.713	0.587414
492.062	0.585538
492.411	0.583810
492.760	0.582131
493.109	0.580487
493.458	0.578769
493.807	0.577187
494.156	0.575590
494.505	0.573891
494.853	0.572240
495.202	0.570496
495.551	0.568868
495.900	0.567262
496.248	0.565570
496.597	0.563901
496.945	0.562294
497.294	0.560751
497.642	0.559187
497.991	0.557533
498.339	0.555862
498.688	0.554340
499.036	0.552935
499.384	0.551498
499.732	0.550007
500.081	0.548503
500.429	0.546911
500.777	0.545454
501.125	0.543973
501.473	0.542519
501.821	0.541057
502.169	0.539613
502.517	0.538263
502.865	0.536870
503.213	0.535424
503.561	0.534102
503.908	0.532776
504.256	0.531333
504.604	0.529942
504.952	0.528516
505.299	0.527162
505.647	0.525810
505.994	0.524396
506.342	0.522905
506.689	0.521473
507.037	0.520081
507.384	0.518736
507.732	0.517410
508.079	0.516117
508.426	0.514798
508.774	0.513434
509.121	0.512214
509.468	0.511021
509.815	0.509778
510.162	0.508497
510.509	0.507247
510.856	0.506017
511.203	0.504790
511.550	0.503617
511.897	0.502454
512.244	0.501257
512.591	0.500043
512.938	0.498862
513.284	0.497605
513.631	0.496406
513.978	0.495149
514.324	0.493946
514.671	0.492692
515.018	0.491449
515.364	0.490156
515.711	0.488931
516.057	0.487717
516.403	0.486462
516.750	0.485183
517.096	0.483996
517.443	0.482863
517.789	0.481738
518.135	0.480520
518.481	0.479308
518.827	0.478176
519.173	0.476965
519.519	0.475825
519.865	0.474676
520.211	0.473500
520.557	0.472342
520.903	0.471231
521.249	0.470156
521.595	0.468964
521.941	0.467785
522.287	0.466587
522.632	0.465326
522.978	0.464140
523.324	0.462926
523.669	0.461658
524.015	0.460415
524.360	0.459057
524.706	0.457759
525.051	0.456543
525.397	0.455304
525.742	0.454169
526.087	0.452968
526.433	0.451860
526.778	0.450720
527.123	0.449521
527.468	0.448265
527.813	0.447160
528.158	0.445925
528.504	0.444668
528.849	0.443339
529.193	0.442037
529.538	0.440794
529.883	0.439509
530.228	0.438095
530.573	0.436754
530.918	0.435513
531.263	0.434275
531.607	0.433112
531.952	0.431866
532.296	0.430584
532.641	0.429446
532.986	0.428123
533.330	0.426799
533.675	0.425501
534.019	0.424102
534.363	0.422774
534.708	0.421471
535.052	0.420199
535.396	0.418931
535.741	0.417679
536.085	0.416471
536.429	0.415218
536.773	0.413888
537.117	0.412530
537.461	0.411102
537.805	0.409649
538.149	0.408099
538.493	0.406586
538.837	0.405035
539.181	0.403470
539.524	0.401876
539.868	0.400264
540.212	0.398714
540.556	0.397171
540.899	0.395627
541.243	0.394212
541.586	0.392717
541.930	0.391239
542.273	0.389571
542.617	0.387892
542.960	0.386202
543.304	0.384474
543.647	0.382736
543.990	0.381017
544.333	0.379290
544.677	0.377593
545.020	0.375989
545.363	0.374343
545.706	0.372648
546.049	0.370949
546.392	0.369286
546.735	0.367650
547.078	0.365929
547.421	0.364192
547.764	0.362414
548.106	0.360543
548.449	0.358590
548.792	0.356662
549.135	0.354731
549.477	0.352870
549.820	0.351104
550.162	0.349280
550.505	0.347457
550.847	0.345654
551.190	0.343659
551.532	0.341696
551.875	0.339627
552.217	0.337442
552.559	0.335373
552.901	0.333318
553.244	0.331314
553.586	0.329388
553.928	0.327462
554.270	0.325633
554.612	0.323805
554.954	0.322035
555.296	0.320180
555.638	0.318316
555.980	0.316297
556.322	0.314245
556.663	0.312089
557.005	0.309847
557.347	0.307670
557.689	0.305492
558.030	0.303337
558.372	0.301274
558.713	0.299158
559.055	0.297131
559.396	0.295061
559.738	0.292954
560.079	0.290811
560.421	0.288728
560.762	0.286685
561.103	0.284634
561.444	0.282652
561.786	0.280648
562.127	0.278641
562.468	0.276628
562.809	0.274534
563.150	0.272438
563.491	0.270187
563.832	0.267922
564.173	0.265600
564.514	0.263221
564.855	0.260776
565.195	0.258260
565.536	0.255781
565.877	0.253353
566.218	0.250944
566.558	0.248623
566.899	0.246401
567.239	0.244349
567.580	0.242493
567.920	0.240779
568.261	0.239193
568.601	0.237659
568.941	0.236245
569.282	0.234909
569.622	0.233587
569.962	0.232246
570.302	0.230973
570.643	0.229760
570.983	0.228656
571.323	0.227606
571.663	0.226592
572.003	0.225552
572.343	0.224515
572.683	0.223366
573.022	0.222118
573.362	0.220867
573.702	0.219635
574.042	0.218413
574.381	0.217239
574.721	0.216062
575.061	0.214944
575.400	0.213912
575.740	0.212875
576.079	0.211851
576.419	0.210705
576.758	0.209512
577.097	0.208289
577.437	0.207001
577.776	0.205680
578.115	0.204363
578.454	0.203117
578.794	0.202026
579.133	0.201050
579.472	0.200160
579.811	0.199344
580.150	0.198561
580.489	0.197715
580.828	0.196795
581.167	0.195865
581.505	0.194953
581.844	0.194048
582.183	0.193116
582.522	0.192176
582.860	0.191264
583.199	0.190407
583.538	0.189622
583.876	0.188870
584.215	0.188135
584.553	0.187422
584.891	0.186715
585.230	0.185977
585.568	0.185170
585.906	0.184265
586.245	0.183377
586.583	0.182504
586.921	0.181731
587.259	0.181050
587.597	0.180412
587.935	0.179736
588.273	0.178993
588.611	0.178084
588.949	0.177132
589.287	0.176152
589.625	0.175196
589.963	0.174325
590.300	0.173457
590.638	0.172697
590.976	0.171937
591.313	0.171163
591.651	0.170319
591.989	0.169523
592.326	0.168745
592.664	0.168061
593.001	0.167418
593.338	0.166832
593.676	0.166295
594.013	0.165755
594.350	0.165252
594.687	0.164798
595.025	0.164400
595.362	0.163947
595.699	0.163483
596.036	0.162977
596.373	0.162495
596.710	0.161989
597.047	0.161436
597.384	0.160886
597.720	0.160286
598.057	0.159709
598.394	0.159126
598.731	0.158591
599.067	0.158010
599.404	0.157452
599.741	0.156932
600.077	0.156428
600.414	0.155939
600.750	0.155516
