Date	2021年06月15日火曜日 04時05分46秒
Spectrometers	USB2+H05879
ダーク	使用
リファレンス	使用
積分時間[msec]	10
平均回数	280
ｽﾑｰｼﾞﾝｸﾞ	10
Electrical Dark	USE
ピクセル数	2048
計測モード	吸光度
保存開始波長[nm]	190.664
保存終了波長[nm]	884.878
保存ﾋﾟｯﾁ波長[nm]	全波長

>>>>>>>>>> Data Start <<<<<<<<<<<<
190.664	0.000000
191.040	0.000000
191.415	0.000000
191.791	-2.130470
192.166	-0.511024
192.542	-0.917815
192.917	0.000000
193.293	-0.482665
193.668	-0.441950
194.044	-0.692454
194.419	0.000000
194.794	-1.336863
195.170	-1.273395
195.545	-1.195264
195.920	-1.075044
196.296	-0.960942
196.671	-0.802446
197.046	-0.643412
197.421	-0.591132
197.796	-0.585472
198.171	-0.560687
198.546	-0.518567
198.922	-0.475462
199.297	-0.454875
199.672	-0.437537
200.047	-0.415784
200.422	-0.374394
200.796	-0.366060
201.171	-0.351790
201.546	-0.354090
201.921	-0.349318
202.296	-0.340520
202.671	-0.316984
203.045	-0.287625
203.420	-0.272248
203.795	-0.253904
204.170	-0.244236
204.544	-0.237445
204.919	-0.249030
205.294	-0.250724
205.668	-0.235451
206.043	-0.213360
206.417	-0.218991
206.792	-0.209067
207.166	-0.202876
207.541	-0.196797
207.915	-0.202241
208.289	-0.196906
208.664	-0.195958
209.038	-0.194896
209.412	-0.178773
209.787	-0.155960
210.161	-0.138398
210.535	-0.138515
210.909	-0.123394
211.284	-0.114796
211.658	-0.121062
212.032	-0.121343
212.406	-0.124909
212.780	-0.116413
213.154	-0.111730
213.528	-0.118541
213.902	-0.124940
214.276	-0.112703
214.650	-0.118043
215.024	-0.109181
215.398	-0.102276
215.772	-0.091565
216.145	-0.080512
216.519	-0.068918
216.893	-0.063353
217.267	-0.069999
217.640	-0.079382
218.014	-0.072216
218.388	-0.060858
218.761	-0.067872
219.135	-0.062202
219.508	-0.054883
219.882	-0.065231
220.256	-0.059969
220.629	-0.053190
221.003	-0.054519
221.376	-0.050759
221.749	-0.056351
222.123	-0.059228
222.496	-0.054928
222.869	-0.052778
223.243	-0.055395
223.616	-0.059461
223.989	-0.071826
224.362	-0.070344
224.736	-0.072959
225.109	-0.064776
225.482	-0.063365
225.855	-0.063076
226.228	-0.068185
226.601	-0.063623
226.974	-0.057830
227.347	-0.058471
227.720	-0.050579
228.093	-0.057285
228.466	-0.063119
228.839	-0.064027
229.212	-0.064877
229.585	-0.073459
229.957	-0.071951
230.330	-0.071145
230.703	-0.070987
231.076	-0.076950
231.448	-0.079804
231.821	-0.078617
232.194	-0.079535
232.566	-0.083934
232.939	-0.087508
233.311	-0.090089
233.684	-0.091002
234.056	-0.090159
234.429	-0.091114
234.801	-0.097284
235.174	-0.091422
235.546	-0.089823
235.918	-0.085141
236.291	-0.082956
236.663	-0.070195
237.035	-0.068649
237.408	-0.055290
237.780	-0.047820
238.152	-0.052772
238.524	-0.058277
238.896	-0.051940
239.268	-0.050739
239.641	-0.054888
240.013	-0.048138
240.385	-0.038497
240.757	-0.045634
241.129	-0.041381
241.500	-0.044821
241.872	-0.042185
242.244	-0.041876
242.616	-0.038626
242.988	-0.038446
243.360	-0.035605
243.731	-0.028750
244.103	-0.028023
244.475	-0.034891
244.847	-0.025342
245.218	-0.024621
245.590	-0.021807
245.961	-0.015595
246.333	-0.013855
246.705	-0.012640
247.076	-0.004222
247.448	0.006936
247.819	0.006296
248.190	0.011774
248.562	0.013635
248.933	0.015010
249.305	0.016594
249.676	0.018265
250.047	0.016899
250.418	0.010812
250.790	0.009091
251.161	0.007772
251.532	0.000583
251.903	-0.002884
252.274	0.007458
252.645	0.009506
253.016	0.011455
253.387	0.003392
253.758	0.004803
254.129	0.006309
254.500	0.010154
254.871	0.002293
255.242	-0.005420
255.613	-0.008626
255.984	-0.021015
256.355	-0.014418
256.725	-0.012696
257.096	-0.010068
257.467	-0.015964
257.838	-0.017250
258.208	-0.012724
258.579	-0.014747
258.949	-0.015390
259.320	-0.011972
259.690	-0.007445
260.061	-0.010938
260.431	-0.014474
260.802	-0.020945
261.172	-0.015087
261.543	-0.015118
261.913	-0.012425
262.283	-0.015620
262.654	-0.014332
263.024	-0.011230
263.394	-0.010273
263.764	-0.002318
264.135	-0.003992
264.505	-0.004472
264.875	-0.002884
265.245	0.001111
265.615	0.001918
265.985	0.005028
266.355	0.013653
266.725	0.012976
267.095	0.013937
267.465	0.018486
267.835	0.018376
268.205	0.012801
268.575	0.015341
268.944	0.014167
269.314	0.010400
269.684	0.007015
270.054	0.003667
270.423	0.008012
270.793	0.007722
271.163	0.013359
271.532	0.019367
271.902	0.026094
272.271	0.028278
272.641	0.030711
273.010	0.026832
273.380	0.022493
273.749	0.015683
274.119	0.020413
274.488	0.029595
274.857	0.036372
275.227	0.034335
275.596	0.030816
275.965	0.038461
276.335	0.045236
276.704	0.042376
277.073	0.047319
277.442	0.059685
277.811	0.062467
278.180	0.068628
278.549	0.067019
278.918	0.065468
279.287	0.061152
279.656	0.060415
280.025	0.058430
280.394	0.050551
280.763	0.058566
281.132	0.069414
281.501	0.075584
281.869	0.064774
282.238	0.065735
282.607	0.053141
282.976	0.053950
283.344	0.062672
283.713	0.057110
284.081	0.049875
284.450	0.053079
284.819	0.057723
285.187	0.056113
285.556	0.051671
285.924	0.044740
286.292	0.045233
286.661	0.041115
287.029	0.039390
287.398	0.042294
287.766	0.042381
288.134	0.049327
288.502	0.046652
288.871	0.044029
289.239	0.045512
289.607	0.048393
289.975	0.043574
290.343	0.046077
290.711	0.042572
291.079	0.037598
291.447	0.044567
291.815	0.047791
292.183	0.045546
292.551	0.039150
292.919	0.036695
293.287	0.043179
293.655	0.046712
294.022	0.050160
294.390	0.054740
294.758	0.057461
295.126	0.054507
295.493	0.058974
295.861	0.061980
296.229	0.057535
296.596	0.059304
296.964	0.058287
297.331	0.057203
297.699	0.057896
298.066	0.071445
298.434	0.080903
298.801	0.084353
299.168	0.081328
299.536	0.087021
299.903	0.094381
300.270	0.104314
300.638	0.109904
301.005	0.120048
301.372	0.133006
301.739	0.137715
302.106	0.138902
302.473	0.146026
302.840	0.149883
303.207	0.165455
303.574	0.181714
303.941	0.204390
304.308	0.218140
304.675	0.234065
305.042	0.252350
305.409	0.277822
305.776	0.289863
306.143	0.302733
306.509	0.325941
306.876	0.351567
307.243	0.374246
307.610	0.401522
307.976	0.428520
308.343	0.455961
308.709	0.484942
309.076	0.511747
309.442	0.541867
309.809	0.576609
310.175	0.607024
310.542	0.639649
310.908	0.666991
311.275	0.693352
311.641	0.719490
312.007	0.748439
312.373	0.777122
312.740	0.806086
313.106	0.831051
313.472	0.865116
313.838	0.901480
314.204	0.926636
314.570	0.948455
314.936	0.978079
315.302	0.998866
315.668	1.016397
316.034	1.043062
316.400	1.069424
316.766	1.084538
317.132	1.111021
317.498	1.133394
317.864	1.149442
318.230	1.168495
318.595	1.186480
318.961	1.205237
319.327	1.223969
319.692	1.241118
320.058	1.250546
320.424	1.268736
320.789	1.285288
321.155	1.299175
321.520	1.309917
321.886	1.329934
322.251	1.345031
322.616	1.354857
322.982	1.365138
323.347	1.376704
323.712	1.391208
324.078	1.399388
324.443	1.413281
324.808	1.419141
325.173	1.427100
325.539	1.437377
325.904	1.443194
326.269	1.452315
326.634	1.458541
326.999	1.465022
327.364	1.468660
327.729	1.478037
328.094	1.482256
328.459	1.486829
328.823	1.490973
329.188	1.499192
329.553	1.498277
329.918	1.504709
330.283	1.511627
330.647	1.520078
331.012	1.524833
331.377	1.525801
331.741	1.528481
332.106	1.532726
332.470	1.540318
332.835	1.542238
333.199	1.544930
333.564	1.551848
333.928	1.553533
334.293	1.554140
334.657	1.552761
335.021	1.557080
335.386	1.558550
335.750	1.559427
336.114	1.561803
336.478	1.563333
336.843	1.562588
337.207	1.565219
337.571	1.567840
337.935	1.567600
338.299	1.566276
338.663	1.565988
339.027	1.566856
339.391	1.567172
339.755	1.565970
340.119	1.563737
340.483	1.564395
340.846	1.565867
341.210	1.565054
341.574	1.566149
341.938	1.567445
342.301	1.569481
342.665	1.569714
343.029	1.569636
343.392	1.571787
343.756	1.571504
344.119	1.571725
344.483	1.572091
344.846	1.573462
345.210	1.573301
345.573	1.573502
345.937	1.574316
346.300	1.576729
346.663	1.576503
347.027	1.578352
347.390	1.579257
347.753	1.579659
348.116	1.580264
348.479	1.581826
348.843	1.581883
349.206	1.581546
349.569	1.581517
349.932	1.583036
350.295	1.584970
350.658	1.587801
351.021	1.589223
351.383	1.590593
351.746	1.591967
352.109	1.594039
352.472	1.593556
352.835	1.593816
353.197	1.594939
353.560	1.596830
353.923	1.596953
354.285	1.596815
354.648	1.596385
355.011	1.596992
355.373	1.598185
355.736	1.598669
356.098	1.598796
356.461	1.600127
356.823	1.601358
357.185	1.602781
357.548	1.603998
357.910	1.603447
358.272	1.602249
358.635	1.601099
358.997	1.600842
359.359	1.602719
359.721	1.603260
360.083	1.605092
360.445	1.606941
360.807	1.607952
361.169	1.608747
361.531	1.609310
361.893	1.612203
362.255	1.613669
362.617	1.615417
362.979	1.617063
363.341	1.618412
363.703	1.619107
364.064	1.621100
364.426	1.621869
364.788	1.621774
365.149	1.622989
365.511	1.624992
365.873	1.627389
366.234	1.628484
366.596	1.629678
366.957	1.629232
367.319	1.630531
367.680	1.630561
368.042	1.629818
368.403	1.631572
368.764	1.633605
369.126	1.634154
369.487	1.634933
369.848	1.636630
370.209	1.637797
370.570	1.638396
370.931	1.639834
371.293	1.641966
371.654	1.642689
372.015	1.644645
372.376	1.647318
372.737	1.647872
373.098	1.648022
373.458	1.648357
373.819	1.651056
374.180	1.653994
374.541	1.655639
374.902	1.656059
375.263	1.657741
375.623	1.659970
375.984	1.660878
376.345	1.660276
376.705	1.662291
377.066	1.663988
377.426	1.664423
377.787	1.665401
378.147	1.666603
378.508	1.667379
378.868	1.667796
379.228	1.667883
379.589	1.667854
379.949	1.668710
380.309	1.670430
380.670	1.671849
381.030	1.672853
381.390	1.673143
381.750	1.671970
382.110	1.672779
382.470	1.673947
382.830	1.674930
383.190	1.676010
383.550	1.676524
383.910	1.678459
384.270	1.679521
384.630	1.680944
384.990	1.682188
385.350	1.683122
385.709	1.683721
386.069	1.685864
386.429	1.686482
386.788	1.688215
387.148	1.690234
387.508	1.690291
387.867	1.690257
388.227	1.690529
388.586	1.692296
388.946	1.693163
389.305	1.694648
389.665	1.695390
390.024	1.697148
390.383	1.697928
390.743	1.698312
391.102	1.698775
391.461	1.698633
391.820	1.699566
392.179	1.698569
392.539	1.698330
392.898	1.699954
393.257	1.700863
393.616	1.701616
393.975	1.702139
394.334	1.703387
394.693	1.703465
395.051	1.705092
395.410	1.704839
395.769	1.706402
396.128	1.707927
396.487	1.708539
396.845	1.708975
397.204	1.708935
397.563	1.708101
397.921	1.708601
398.280	1.707657
398.638	1.706389
398.997	1.706953
399.355	1.706302
399.714	1.706804
400.072	1.705850
400.431	1.704110
400.789	1.703011
401.147	1.701622
401.506	1.700231
401.864	1.698796
402.222	1.697708
402.580	1.695295
402.938	1.695811
403.297	1.694535
403.655	1.692380
404.013	1.691320
404.371	1.690591
404.729	1.689271
405.087	1.688431
405.444	1.687875
405.802	1.686984
406.160	1.687613
406.518	1.686269
406.876	1.686093
407.233	1.685167
407.591	1.685557
407.949	1.685103
408.306	1.684525
408.664	1.683859
409.022	1.684275
409.379	1.683462
409.737	1.682335
410.094	1.682296
410.451	1.680901
410.809	1.680249
411.166	1.678774
411.523	1.678139
411.881	1.677640
412.238	1.677347
412.595	1.675372
412.952	1.674472
413.310	1.674155
413.667	1.673801
414.024	1.673624
414.381	1.672791
414.738	1.672646
415.095	1.671069
415.452	1.669260
415.809	1.668366
416.165	1.668131
416.522	1.666664
416.879	1.665684
417.236	1.664379
417.593	1.662929
417.949	1.661357
418.306	1.659674
418.663	1.659613
419.019	1.658472
419.376	1.656061
419.732	1.654685
420.089	1.653999
420.445	1.652212
420.802	1.651551
421.158	1.649082
421.514	1.646503
421.871	1.644601
422.227	1.641781
422.583	1.640744
422.939	1.639163
423.295	1.637304
423.652	1.634896
424.008	1.632818
424.364	1.631084
424.720	1.630219
425.076	1.628834
425.432	1.627330
425.788	1.625363
426.143	1.622596
426.499	1.619939
426.855	1.619167
427.211	1.617236
427.567	1.615676
427.922	1.614222
428.278	1.610842
428.634	1.609467
428.989	1.607096
429.345	1.604192
429.700	1.602556
430.056	1.600444
430.411	1.599113
430.767	1.597455
431.122	1.595169
431.478	1.592702
431.833	1.590147
432.188	1.586583
432.543	1.584213
432.899	1.581325
433.254	1.577930
433.609	1.574636
433.964	1.571942
434.319	1.568163
434.674	1.564916
435.029	1.561635
435.384	1.558022
435.739	1.555891
436.094	1.553229
436.449	1.550847
436.804	1.548371
437.158	1.545149
437.513	1.542054
437.868	1.538466
438.223	1.534935
438.577	1.531174
438.932	1.529182
439.287	1.525862
439.641	1.522863
439.996	1.519366
440.350	1.516085
440.704	1.513820
441.059	1.511374
441.413	1.507885
441.768	1.504425
442.122	1.501092
442.476	1.497335
442.830	1.493788
443.185	1.490292
443.539	1.486420
443.893	1.483066
444.247	1.479100
444.601	1.475779
444.955	1.471418
445.309	1.467424
445.663	1.463320
446.017	1.459552
446.371	1.454633
446.724	1.449809
447.078	1.445468
447.432	1.441160
447.786	1.436793
448.139	1.431593
448.493	1.426625
448.847	1.422083
449.200	1.417762
449.554	1.413337
449.907	1.409316
450.261	1.404592
450.614	1.400145
450.968	1.395602
451.321	1.390437
451.674	1.385963
452.027	1.380737
452.381	1.376580
452.734	1.372283
453.087	1.367614
453.440	1.362712
453.793	1.358202
454.146	1.354043
454.499	1.349537
454.852	1.344944
455.205	1.340322
455.558	1.336307
455.911	1.332105
456.264	1.328034
456.617	1.323823
456.970	1.319747
457.322	1.315696
457.675	1.312084
458.028	1.308162
458.380	1.304314
458.733	1.300695
459.086	1.297062
459.438	1.293430
459.791	1.289636
460.143	1.285400
460.496	1.281624
460.848	1.277754
461.200	1.273731
461.553	1.269838
461.905	1.266298
462.257	1.262364
462.609	1.258786
462.961	1.255189
463.314	1.251373
463.666	1.247558
464.018	1.243589
464.370	1.240084
464.722	1.236207
465.074	1.232504
465.426	1.229009
465.777	1.225688
466.129	1.222562
466.481	1.218915
466.833	1.215655
467.184	1.212468
467.536	1.209061
467.888	1.205464
468.239	1.201660
468.591	1.197779
468.943	1.193595
469.294	1.189359
469.646	1.185122
469.997	1.180687
470.348	1.176658
470.700	1.172716
471.051	1.168995
471.402	1.165640
471.754	1.162177
472.105	1.158832
472.456	1.155542
472.807	1.152127
473.158	1.149036
473.509	1.145675
473.860	1.142793
474.211	1.139773
474.562	1.136812
474.913	1.133865
475.264	1.131039
475.615	1.128429
475.966	1.125450
476.316	1.122661
476.667	1.119982
477.018	1.117329
477.368	1.114583
477.719	1.111676
478.070	1.109099
478.420	1.106600
478.771	1.103678
479.121	1.100642
479.472	1.097941
479.822	1.095222
480.172	1.092463
480.523	1.089329
480.873	1.086448
481.223	1.082974
481.573	1.079363
481.924	1.075829
482.274	1.072525
482.624	1.069521
482.974	1.066764
483.324	1.064575
483.674	1.062547
484.024	1.060521
484.374	1.058701
484.724	1.056893
485.073	1.055106
485.423	1.053272
485.773	1.051315
486.123	1.049559
486.472	1.047679
486.822	1.045833
487.172	1.043957
487.521	1.042014
487.871	1.040223
488.220	1.038362
488.570	1.036260
488.919	1.033768
489.268	1.030748
489.618	1.027536
489.967	1.023746
490.316	1.019558
490.666	1.015202
491.015	1.011103
491.364	1.007353
491.713	1.003847
492.062	1.000672
492.411	0.997525
492.760	0.994563
493.109	0.991649
493.458	0.988653
493.807	0.986027
494.156	0.983069
494.505	0.980125
494.853	0.977405
495.202	0.974463
495.551	0.971464
495.900	0.968539
496.248	0.965821
496.597	0.963040
496.945	0.960136
497.294	0.957430
497.642	0.954703
497.991	0.951869
498.339	0.948894
498.688	0.946078
499.036	0.943421
499.384	0.940776
499.732	0.938162
500.081	0.935499
500.429	0.932691
500.777	0.930134
501.125	0.927525
501.473	0.925006
501.821	0.922491
502.169	0.919913
502.517	0.917455
502.865	0.914997
503.213	0.912580
503.561	0.910062
503.908	0.907679
504.256	0.905235
504.604	0.902708
504.952	0.900206
505.299	0.897791
505.647	0.895514
505.994	0.893009
506.342	0.890528
506.689	0.888023
507.037	0.885685
507.384	0.883245
507.732	0.880959
508.079	0.878609
508.426	0.876274
508.774	0.873891
509.121	0.871691
509.468	0.869546
509.815	0.867418
510.162	0.865143
510.509	0.862957
510.856	0.860732
511.203	0.858632
511.550	0.856536
511.897	0.854437
512.244	0.852547
512.591	0.850337
512.938	0.848199
513.284	0.846189
513.631	0.844077
513.978	0.841907
514.324	0.839739
514.671	0.837586
515.018	0.835538
515.364	0.833454
515.711	0.831428
516.057	0.829435
516.403	0.827383
516.750	0.825400
517.096	0.823440
517.443	0.821508
517.789	0.819549
518.135	0.817646
518.481	0.815595
518.827	0.813682
519.173	0.811841
519.519	0.809839
519.865	0.807996
520.211	0.806181
520.557	0.804166
520.903	0.802184
521.249	0.800413
521.595	0.798502
521.941	0.796521
522.287	0.794352
522.632	0.792199
522.978	0.790036
523.324	0.787999
523.669	0.785939
524.015	0.783796
524.360	0.781583
524.706	0.779544
525.051	0.777509
525.397	0.775447
525.742	0.773396
526.087	0.771420
526.433	0.769433
526.778	0.767434
527.123	0.765455
527.468	0.763461
527.813	0.761610
528.158	0.759580
528.504	0.757468
528.849	0.755354
529.193	0.753348
529.538	0.751341
529.883	0.749162
530.228	0.747005
530.573	0.744816
530.918	0.742693
531.263	0.740481
531.607	0.738334
531.952	0.736194
532.296	0.734002
532.641	0.731919
532.986	0.729689
533.330	0.727502
533.675	0.725271
534.019	0.722983
534.363	0.720640
534.708	0.718372
535.052	0.716135
535.396	0.713967
535.741	0.711727
536.085	0.709362
536.429	0.706923
536.773	0.704583
537.117	0.702212
537.461	0.699625
537.805	0.696870
538.149	0.694096
538.493	0.691380
538.837	0.688695
539.181	0.685909
539.524	0.683156
539.868	0.680376
540.212	0.677738
540.556	0.674944
540.899	0.672210
541.243	0.669453
541.586	0.666661
541.930	0.663778
542.273	0.660916
542.617	0.657976
542.960	0.655014
543.304	0.651959
543.647	0.648803
543.990	0.645531
544.333	0.642359
544.677	0.639261
545.020	0.636165
545.363	0.633003
545.706	0.629894
546.049	0.626744
546.392	0.623575
546.735	0.620468
547.078	0.617174
547.421	0.613816
547.764	0.610434
548.106	0.606896
548.449	0.603280
548.792	0.599809
549.135	0.596215
549.477	0.592584
549.820	0.589047
550.162	0.585572
550.505	0.581993
550.847	0.578466
551.190	0.574716
551.532	0.570800
551.875	0.566769
552.217	0.562644
552.559	0.558635
552.901	0.554566
553.244	0.550648
553.586	0.546817
553.928	0.543021
554.270	0.539404
554.612	0.535793
554.954	0.532138
555.296	0.528355
555.638	0.524602
555.980	0.520534
556.322	0.516329
556.663	0.511982
557.005	0.507613
557.347	0.503249
557.689	0.499019
558.030	0.494815
558.372	0.490695
558.713	0.486575
559.055	0.482448
559.396	0.478339
559.738	0.474097
560.079	0.469886
560.421	0.465681
560.762	0.461572
561.103	0.457494
561.444	0.453447
561.786	0.449516
562.127	0.445580
562.468	0.441650
562.809	0.437590
563.150	0.433487
563.491	0.429322
563.832	0.425061
564.173	0.420630
564.514	0.416031
564.855	0.411288
565.195	0.406495
565.536	0.401706
565.877	0.396994
566.218	0.392438
566.558	0.387994
566.899	0.383699
567.239	0.379679
567.580	0.375885
567.920	0.372358
568.261	0.369084
568.601	0.365940
568.941	0.362941
569.282	0.360086
569.622	0.357281
569.962	0.354498
570.302	0.351754
570.643	0.349071
570.983	0.346505
571.323	0.344039
571.663	0.341646
572.003	0.339285
572.343	0.336901
572.683	0.334421
573.022	0.331839
573.362	0.329146
573.702	0.326447
574.042	0.323784
574.381	0.321163
574.721	0.318625
575.061	0.316159
575.400	0.313851
575.740	0.311574
576.079	0.309317
576.419	0.306989
576.758	0.304580
577.097	0.302103
577.437	0.299514
577.776	0.296902
578.115	0.294316
578.454	0.291838
578.794	0.289589
579.133	0.287567
579.472	0.285721
579.811	0.283983
580.150	0.282288
580.489	0.280543
580.828	0.278692
581.167	0.276779
581.505	0.274843
581.844	0.272917
582.183	0.270971
582.522	0.269074
582.860	0.267264
583.199	0.265538
583.538	0.263896
583.876	0.262269
584.215	0.260632
584.553	0.258990
584.891	0.257355
585.230	0.255665
585.568	0.253944
585.906	0.252149
586.245	0.250368
586.583	0.248652
586.921	0.247126
587.259	0.245735
587.597	0.244398
587.935	0.243016
588.273	0.241530
588.611	0.239876
588.949	0.238123
589.287	0.236357
589.625	0.234553
589.963	0.232824
590.300	0.231155
590.638	0.229591
590.976	0.228061
591.313	0.226508
591.651	0.224966
591.989	0.223433
592.326	0.221980
592.664	0.220650
593.001	0.219356
593.338	0.218202
593.676	0.217152
594.013	0.216090
594.350	0.215057
594.687	0.214062
595.025	0.213127
595.362	0.212156
595.699	0.211157
596.036	0.210120
596.373	0.209081
596.710	0.208010
597.047	0.206891
597.384	0.205779
597.720	0.204661
598.057	0.203558
598.394	0.202472
598.731	0.201383
599.067	0.200314
599.404	0.199281
599.741	0.198232
600.077	0.197254
600.414	0.196319
600.750	0.195454
601.087	0.194635
601.423	0.193772
601.759	0.192945
602.096	0.192075
