Date	2022年07月22日金曜日 01時41分18秒
Spectrometers	USB2+H05879
ダーク	使用
リファレンス	使用
積分時間[msec]	17
平均回数	10000
ｽﾑｰｼﾞﾝｸﾞ	0
Electrical Dark	USE
ピクセル数	2048
計測モード	吸光度
保存開始波長[nm]	190.664
保存終了波長[nm]	884.878
保存ﾋﾟｯﾁ波長[nm]	全波長

>>>>>>>>>> Data Start <<<<<<<<<<<<
190.664	0.000000
191.040	0.000000
191.415	0.000000
191.791	0.000000
192.166	0.000000
192.542	-0.104151
192.917	0.537439
193.293	0.000000
193.668	0.000000
194.044	0.000000
194.419	0.000000
194.794	0.000000
195.170	0.000000
195.545	0.000000
195.920	0.000000
196.296	0.000000
196.671	0.000000
197.046	0.000000
197.421	0.233617
197.796	0.000000
198.171	0.000000
198.546	0.000000
198.922	0.195516
199.297	0.000000
199.672	0.000000
200.047	0.000000
200.422	0.000000
200.796	0.000000
201.171	0.000000
201.546	0.000000
201.921	0.000000
202.296	0.000000
202.671	0.000000
203.045	0.000000
203.420	0.929164
203.795	0.000000
204.170	0.000000
204.544	0.000000
204.919	0.000000
205.294	0.000000
205.668	0.000000
206.043	0.000000
206.417	0.907541
206.792	0.000000
207.166	0.000000
207.541	0.000000
207.915	0.000000
208.289	0.677331
208.664	0.000000
209.038	0.428162
209.412	0.000000
209.787	0.000000
210.161	0.044273
210.535	0.000000
210.909	0.879140
211.284	0.327885
211.658	0.000000
212.032	0.000000
212.406	0.590410
212.780	0.000000
213.154	0.086789
213.528	0.000000
213.902	0.294054
214.276	0.000000
214.650	0.000000
215.024	0.000000
215.398	0.238605
215.772	0.000000
216.145	0.000000
216.519	1.300860
216.893	0.000000
217.267	0.238710
217.640	0.000000
218.014	0.000000
218.388	0.180525
218.761	0.849191
219.135	0.364744
219.508	0.200665
219.882	0.000000
220.256	0.000000
220.629	0.000000
221.003	0.000000
221.376	0.000000
221.749	0.000000
222.123	0.000000
222.496	0.000000
222.869	0.000000
223.243	0.000000
223.616	0.087944
223.989	0.000000
224.362	0.000000
224.736	0.887033
225.109	1.369150
225.482	0.000000
225.855	0.118260
226.228	1.534303
226.601	0.000000
226.974	0.000000
227.347	0.000000
227.720	0.000000
228.093	0.000000
228.466	0.000000
228.839	-0.021645
229.212	1.014409
229.585	0.876357
229.957	1.193141
230.330	0.000000
230.703	0.000000
231.076	0.416562
231.448	0.948237
231.821	0.000000
232.194	-0.645794
232.566	0.000000
232.939	0.000000
233.311	0.000000
233.684	0.000000
234.056	0.000000
234.429	0.000000
234.801	0.000000
235.174	0.000000
235.546	0.000000
235.918	0.000000
236.291	0.505880
236.663	0.000000
237.035	0.492119
237.408	0.442353
237.780	0.140302
238.152	0.762539
238.524	0.000000
238.896	0.000000
239.268	0.000000
239.641	0.000000
240.013	0.107243
240.385	0.000000
240.757	0.000000
241.129	0.000000
241.500	0.000000
241.872	0.000000
242.244	0.766430
242.616	0.000000
242.988	0.000000
243.360	0.000000
243.731	0.000000
244.103	0.074287
244.475	0.000000
244.847	0.000000
245.218	0.000000
245.590	0.000000
245.961	0.000000
246.333	1.613823
246.705	0.000000
247.076	0.220961
247.448	0.000000
247.819	0.000000
248.190	0.641092
248.562	0.000000
248.933	0.000000
249.305	0.000000
249.676	-0.519308
250.047	0.205431
250.418	0.000000
250.790	0.000000
251.161	0.000000
251.532	0.000000
251.903	0.000000
252.274	0.000000
252.645	0.000000
253.016	1.207156
253.387	0.711495
253.758	0.000000
254.129	0.000000
254.500	0.000000
254.871	0.299637
255.242	1.040768
255.613	0.000000
255.984	0.200185
256.355	0.000000
256.725	0.000000
257.096	0.000000
257.467	1.046103
257.838	0.448865
258.208	0.000000
258.579	0.292180
258.949	0.000000
259.320	0.000000
259.690	0.000000
260.061	-0.027983
260.431	0.426037
260.802	0.860606
261.172	0.000000
261.543	0.000000
261.913	1.625999
262.283	-0.035791
262.654	0.000000
263.024	-0.230559
263.394	0.000000
263.764	0.733854
264.135	0.000000
264.505	0.027651
264.875	-0.075573
265.245	0.244343
265.615	0.258070
265.985	0.000000
266.355	0.000000
266.725	-1.174292
267.095	0.000000
267.465	0.338662
267.835	0.000000
268.205	1.417271
268.575	0.000000
268.944	0.000000
269.314	0.000000
269.684	0.000000
270.054	0.000000
270.423	0.000000
270.793	-0.191257
271.163	1.031150
271.532	0.000000
271.902	0.000000
272.271	-0.334048
272.641	0.000000
273.010	0.000000
273.380	0.000000
273.749	0.125562
274.119	0.000000
274.488	0.000000
274.857	0.000000
275.227	0.000000
275.596	0.000000
275.965	0.000000
276.335	0.000000
276.704	0.000000
277.073	0.000000
277.442	0.694978
277.811	0.695956
278.180	0.000000
278.549	0.000000
278.918	0.000000
279.287	0.000000
279.656	0.281049
280.025	0.188533
280.394	0.000000
280.763	1.041629
281.132	0.000000
281.501	0.000000
281.869	0.000000
282.238	0.000000
282.607	0.000000
282.976	0.674647
283.344	0.000000
283.713	0.000000
284.081	0.000000
284.450	0.000000
284.819	0.000000
285.187	0.000000
285.556	0.000000
285.924	0.699028
286.292	-1.260617
286.661	0.326194
287.029	0.840719
287.398	0.548886
287.766	0.000000
288.134	0.000000
288.502	0.000000
288.871	0.184812
289.239	0.000000
289.607	0.309488
289.975	0.472878
290.343	0.000000
290.711	0.000000
291.079	1.751700
291.447	1.438916
291.815	0.250667
292.183	-0.317669
292.551	0.000000
292.919	-0.855140
293.287	0.417671
293.655	0.837082
294.022	0.000000
294.390	0.000000
294.758	0.000000
295.126	0.496351
295.493	0.000000
295.861	0.219062
296.229	0.719180
296.596	0.630926
296.964	0.000000
297.331	0.000000
297.699	0.000000
298.066	0.000000
298.434	0.337192
298.801	1.117822
299.168	1.012731
299.536	0.000000
299.903	0.572713
300.270	0.000000
300.638	0.000000
301.005	1.277697
301.372	-0.345985
301.739	0.035059
302.106	0.000000
302.473	0.000000
302.840	0.000000
303.207	0.635217
303.574	-0.025499
303.941	0.000000
304.308	0.768682
304.675	0.165707
305.042	0.655069
305.409	0.000000
305.776	-0.172876
306.143	0.364429
306.509	0.000000
306.876	0.498839
307.243	0.886114
307.610	0.710559
307.976	0.000000
308.343	0.479142
308.709	1.019758
309.076	1.156722
309.442	0.532979
309.809	1.008272
310.175	1.333623
310.542	1.655796
310.908	1.108833
311.275	1.425799
311.641	0.863352
312.007	1.637167
312.373	1.313315
312.740	1.317761
313.106	1.258367
313.472	1.278783
313.838	1.539447
314.204	1.509089
314.570	1.251145
314.936	1.245369
315.302	0.000000
315.668	1.463733
316.034	1.872215
316.400	1.484688
316.766	1.430208
317.132	0.000000
317.498	1.503173
317.864	1.839570
318.230	2.526988
318.595	0.000000
318.961	0.000000
319.327	1.368314
319.692	1.967611
320.058	1.910248
320.424	1.800398
320.789	1.666487
321.155	1.676167
321.520	2.377656
321.886	1.766157
322.251	2.138224
322.616	1.994071
322.982	0.000000
323.347	1.961152
323.712	1.736933
324.078	0.000000
324.443	2.001615
324.808	0.000000
325.173	2.247182
325.539	1.896704
325.904	2.073522
326.269	2.323060
326.634	2.201881
326.999	2.888054
327.364	1.951288
327.729	2.268555
328.094	2.011532
328.459	2.437854
328.823	2.037228
329.188	1.763714
329.553	2.099154
329.918	2.569317
330.283	2.485763
330.647	2.132712
331.012	2.020537
331.377	2.519205
331.741	2.599349
332.106	2.329391
332.470	2.001616
332.835	2.164097
333.199	2.153364
333.564	2.233451
333.928	1.905138
334.293	1.921773
334.657	2.265002
335.021	2.080292
335.386	2.004596
335.750	2.164612
336.114	2.420503
336.478	2.343270
336.843	2.081219
337.207	2.246507
337.571	2.216223
337.935	2.459070
338.299	2.199199
338.663	2.317634
339.027	2.273484
339.391	2.284260
339.755	1.977796
340.119	2.143059
340.483	2.238908
340.846	2.307186
341.210	2.046692
341.574	2.150002
341.938	1.945453
342.301	2.120047
342.665	2.397581
343.029	2.376680
343.392	2.006504
343.756	2.236357
344.119	2.182289
344.483	2.428655
344.846	2.270118
345.210	2.126367
345.573	2.056374
345.937	2.327562
346.300	2.451024
346.663	2.192490
347.027	2.185703
347.390	2.141394
347.753	2.252776
348.116	2.137446
348.479	2.248588
348.843	2.154898
349.206	2.205395
349.569	1.970064
349.932	2.319916
350.295	2.280208
350.658	2.195832
351.021	2.004847
351.383	2.043460
351.746	2.274330
352.109	2.257194
352.472	2.048771
352.835	2.123731
353.197	2.290281
353.560	2.179024
353.923	2.219902
354.285	2.297192
354.648	2.075353
355.011	2.327973
355.373	2.171666
355.736	2.127053
356.098	2.160221
356.461	2.122790
356.823	2.558437
357.185	2.316037
357.548	2.101560
357.910	2.209669
358.272	2.244689
358.635	2.237027
358.997	2.239322
359.359	2.096622
359.721	2.291536
360.083	2.209288
360.445	2.323207
360.807	2.177209
361.169	2.117280
361.531	2.210120
361.893	2.169700
362.255	2.099944
362.617	2.149309
362.979	2.259972
363.341	2.316799
363.703	2.083875
364.064	2.127644
364.426	2.186248
364.788	2.051725
365.149	2.021443
365.511	2.185773
365.873	2.266989
366.234	2.226165
366.596	2.237201
366.957	2.303609
367.319	2.116228
367.680	2.116297
368.042	2.088327
368.403	2.131594
368.764	2.167703
369.126	2.186083
369.487	2.156833
369.848	2.187877
370.209	2.202378
370.570	2.103187
370.931	2.166533
371.293	2.338784
371.654	2.177530
372.015	2.252519
372.376	2.138758
372.737	2.086951
373.098	2.274495
373.458	2.249810
373.819	2.160149
374.180	2.146173
374.541	2.413020
374.902	2.333695
375.263	2.114680
375.623	2.004997
375.984	2.128324
376.345	2.208632
376.705	2.233072
377.066	2.234253
377.426	2.376209
377.787	2.350766
378.147	2.134826
378.508	2.129554
378.868	2.380754
379.228	2.295837
379.589	2.309716
379.949	2.196555
380.309	2.420282
380.670	2.331478
381.030	2.149392
381.390	2.501954
381.750	2.322834
382.110	2.314375
382.470	2.324562
382.830	2.302758
383.190	2.173253
383.550	2.301503
383.910	2.177759
384.270	2.283178
384.630	2.256625
384.990	2.158016
385.350	2.165536
385.709	2.282148
386.069	2.350875
386.429	2.264858
386.788	2.285164
387.148	2.273858
387.508	2.289888
387.867	2.278970
388.227	2.314249
388.586	2.203087
388.946	2.028652
389.305	2.238565
389.665	2.310455
390.024	2.573667
390.383	2.480963
390.743	2.151531
391.102	2.406735
391.461	2.121537
391.820	2.312874
392.179	2.163436
392.539	2.272272
392.898	2.228349
393.257	2.294386
393.616	2.187390
393.975	2.098946
394.334	2.145006
394.693	2.161271
395.051	2.352561
395.410	2.569081
395.769	2.275249
396.128	2.313313
396.487	2.150172
396.845	2.279879
397.204	2.250096
397.563	2.455097
397.921	2.224330
398.280	2.188312
398.638	2.319157
398.997	2.164524
399.355	2.300954
399.714	2.236124
400.072	2.414196
400.431	2.187280
400.789	2.495659
401.147	2.167165
401.506	2.159182
401.864	2.142277
402.222	2.432910
402.580	2.344076
402.938	2.091759
403.297	2.138947
403.655	2.409131
404.013	2.180939
404.371	2.207289
404.729	2.515920
405.087	2.226331
405.444	2.403452
405.802	2.307157
406.160	2.317834
406.518	2.244885
406.876	2.194270
407.233	2.302416
407.591	2.458242
407.949	2.562948
408.306	2.119411
408.664	2.273344
409.022	2.347386
409.379	2.326777
409.737	2.228853
410.094	2.266781
410.451	2.301578
410.809	2.290647
411.166	2.100069
411.523	2.162046
411.881	2.160898
412.238	2.257132
412.595	2.287783
412.952	2.315959
413.310	2.124521
413.667	2.451163
414.024	2.302286
414.381	2.223379
414.738	2.232912
415.095	2.345600
415.452	2.170908
415.809	2.251644
416.165	2.161782
416.522	2.196472
416.879	2.311474
417.236	2.468474
417.593	2.333605
417.949	2.498239
418.306	2.471351
418.663	2.241747
419.019	2.180737
419.376	2.173613
419.732	2.339503
420.089	2.249328
420.445	2.247325
420.802	2.250001
421.158	2.419221
421.514	2.261870
421.871	2.193612
422.227	2.233863
422.583	2.168628
422.939	2.164881
423.295	2.131374
423.652	2.440928
424.008	2.288370
424.364	2.114352
424.720	2.139688
425.076	2.204277
425.432	2.299309
425.788	2.266319
426.143	2.231334
426.499	2.109569
426.855	2.168675
427.211	2.230391
427.567	2.280746
427.922	2.169411
428.278	2.421682
428.634	2.226492
428.989	2.399330
429.345	2.205011
429.700	2.371774
430.056	2.133562
430.411	2.158146
430.767	2.296017
431.122	2.273207
431.478	2.211540
431.833	2.276735
432.188	2.230965
432.543	2.174070
432.899	2.379811
433.254	2.122685
433.609	2.199200
433.964	2.275938
434.319	2.375965
434.674	2.307708
435.029	2.288689
435.384	2.149889
435.739	2.198245
436.094	2.273696
436.449	2.195843
436.804	2.331548
437.158	2.127815
437.513	2.299783
437.868	2.251064
438.223	2.139861
438.577	2.138894
438.932	2.055659
439.287	2.174772
439.641	2.168716
439.996	2.199553
440.350	2.124473
440.704	2.171404
441.059	2.252103
441.413	2.268027
441.768	1.985937
442.122	2.269912
442.476	2.157055
442.830	2.079596
443.185	2.121385
443.539	2.124197
443.893	2.110596
444.247	2.217790
444.601	2.092412
444.955	2.100582
445.309	2.150122
445.663	2.019330
446.017	2.040352
446.371	2.088189
446.724	2.114558
447.078	2.003528
447.432	1.990847
447.786	2.147224
448.139	2.061688
448.493	2.159639
448.847	2.025768
449.200	1.967651
449.554	1.975524
449.907	2.075754
450.261	2.060712
450.614	2.124109
450.968	1.978044
451.321	2.084076
451.674	1.989958
452.027	2.011034
452.381	2.006964
452.734	2.038915
453.087	2.105086
453.440	2.005737
453.793	2.043345
454.146	2.162411
454.499	2.022083
454.852	2.008362
455.205	1.960172
455.558	1.907655
455.911	2.037416
456.264	2.018696
456.617	1.966473
456.970	1.983330
457.322	1.922940
457.675	1.960988
458.028	1.941742
458.380	1.969412
458.733	2.060968
459.086	1.989929
459.438	2.029087
459.791	1.951732
460.143	1.937253
460.496	1.895128
460.848	1.907744
461.200	1.939032
461.553	1.920772
461.905	1.953491
462.257	2.021298
462.609	1.948753
462.961	1.878549
463.314	1.834960
463.666	1.858910
464.018	1.901883
464.370	1.915050
464.722	1.888408
465.074	1.830657
465.426	1.849012
465.777	1.815784
466.129	1.829379
466.481	1.789931
466.833	1.811795
467.184	1.908717
467.536	1.831392
467.888	1.893187
468.239	1.837843
468.591	1.832335
468.943	1.901993
469.294	1.761595
469.646	1.850737
469.997	1.781877
470.348	1.821231
470.700	1.692849
471.051	1.744552
471.402	1.838176
471.754	1.828826
472.105	1.798060
472.456	1.816574
472.807	1.814761
473.158	1.762468
473.509	1.735917
473.860	1.807897
474.211	1.772015
474.562	1.804073
474.913	1.791344
475.264	1.774588
475.615	1.769269
475.966	1.770459
476.316	1.773033
476.667	1.706011
477.018	1.753828
477.368	1.708713
477.719	1.737382
478.070	1.750724
478.420	1.693154
478.771	1.751581
479.121	1.710160
479.472	1.713712
479.822	1.713573
480.172	1.680769
480.523	1.684624
480.873	1.662963
481.223	1.681872
481.573	1.692539
481.924	1.667675
482.274	1.690463
482.624	1.696807
482.974	1.670948
483.324	1.695823
483.674	1.629863
484.024	1.650557
484.374	1.716527
484.724	1.665675
485.073	1.652073
485.423	1.656056
485.773	1.649860
486.123	1.632742
486.472	1.635875
486.822	1.639259
487.172	1.646802
487.521	1.627177
487.871	1.599189
488.220	1.608045
488.570	1.658815
488.919	1.634482
489.268	1.640279
489.618	1.617557
489.967	1.629296
490.316	1.623652
490.666	1.567779
491.015	1.620369
491.364	1.554844
491.713	1.591866
492.062	1.586501
492.411	1.600843
492.760	1.607465
493.109	1.611148
493.458	1.581857
493.807	1.585604
494.156	1.596801
494.505	1.547816
494.853	1.548269
495.202	1.564583
495.551	1.574357
495.900	1.557791
496.248	1.540782
496.597	1.538782
496.945	1.553085
497.294	1.534570
497.642	1.539778
497.991	1.513635
498.339	1.526672
498.688	1.520688
499.036	1.527441
499.384	1.527382
499.732	1.511193
500.081	1.519848
500.429	1.500542
500.777	1.534494
501.125	1.503613
501.473	1.510811
501.821	1.508856
502.169	1.489668
502.517	1.492701
502.865	1.480600
503.213	1.482200
503.561	1.488009
503.908	1.487189
504.256	1.464972
504.604	1.450737
504.952	1.450825
505.299	1.450074
505.647	1.456555
505.994	1.489589
506.342	1.461496
506.689	1.462160
507.037	1.431781
507.384	1.445894
507.732	1.429575
508.079	1.434356
508.426	1.437455
508.774	1.409908
509.121	1.424677
509.468	1.427694
509.815	1.418316
510.162	1.421029
510.509	1.418382
510.856	1.428121
511.203	1.411017
511.550	1.415800
511.897	1.413155
512.244	1.397040
512.591	1.406116
512.938	1.381626
513.284	1.395243
513.631	1.395644
513.978	1.426476
514.324	1.386431
514.671	1.397820
515.018	1.368714
515.364	1.370939
515.711	1.394162
516.057	1.402958
516.403	1.377891
516.750	1.362806
517.096	1.378706
517.443	1.362078
517.789	1.384025
518.135	1.356291
518.481	1.383066
518.827	1.392387
519.173	1.358667
519.519	1.385194
519.865	1.365605
520.211	1.354872
520.557	1.341579
520.903	1.333648
521.249	1.352967
521.595	1.349104
521.941	1.356587
522.287	1.367623
522.632	1.331730
522.978	1.343277
523.324	1.343138
523.669	1.327672
524.015	1.327751
524.360	1.331269
524.706	1.330024
525.051	1.327696
525.397	1.311783
525.742	1.313020
526.087	1.325830
526.433	1.307912
526.778	1.305485
527.123	1.312052
527.468	1.290787
527.813	1.296969
528.158	1.313888
528.504	1.308091
528.849	1.315789
529.193	1.299157
529.538	1.285631
529.883	1.282185
530.228	1.275467
530.573	1.295724
530.918	1.290673
531.263	1.269386
531.607	1.263610
531.952	1.278639
532.296	1.258079
532.641	1.274641
532.986	1.263277
533.330	1.272765
533.675	1.281640
534.019	1.257440
534.363	1.249162
534.708	1.244384
535.052	1.248828
535.396	1.250697
535.741	1.254833
536.085	1.234644
536.429	1.246106
536.773	1.227069
537.117	1.251736
537.461	1.224363
537.805	1.241102
538.149	1.227765
538.493	1.233955
538.837	1.214274
539.181	1.208293
539.524	1.207588
539.868	1.201432
540.212	1.211789
540.556	1.204277
540.899	1.194715
541.243	1.193202
541.586	1.179340
541.930	1.204016
542.273	1.208820
542.617	1.182687
542.960	1.176083
543.304	1.180893
543.647	1.164664
543.990	1.160160
544.333	1.166824
544.677	1.148989
545.020	1.173293
545.363	1.156423
545.706	1.153587
546.049	1.153578
546.392	1.134629
546.735	1.130912
547.078	1.132421
547.421	1.125736
547.764	1.134392
548.106	1.111786
548.449	1.132131
548.792	1.111643
549.135	1.106039
549.477	1.113349
549.820	1.102387
550.162	1.079700
550.505	1.093183
550.847	1.082548
551.190	1.078509
551.532	1.071268
551.875	1.058237
552.217	1.058333
552.559	1.061622
552.901	1.062179
553.244	1.052467
553.586	1.052236
553.928	1.043938
554.270	1.036275
554.612	1.031561
554.954	1.036212
555.296	1.023781
555.638	1.023766
555.980	1.007819
556.322	1.007635
556.663	1.003441
557.005	1.001675
557.347	0.982802
557.689	0.987312
558.030	0.970458
558.372	0.969623
558.713	0.966101
559.055	0.962324
559.396	0.954043
559.738	0.953573
560.079	0.947202
560.421	0.947798
560.762	0.934674
561.103	0.938343
561.444	0.929160
561.786	0.925674
562.127	0.916509
562.468	0.912279
562.809	0.904069
563.150	0.904948
563.491	0.894098
563.832	0.887922
564.173	0.874918
564.514	0.873558
564.855	0.869435
565.195	0.865379
565.536	0.857833
565.877	0.850330
566.218	0.850526
566.558	0.845886
566.899	0.845227
567.239	0.830107
567.580	0.826916
567.920	0.826592
568.261	0.817323
568.601	0.812859
568.941	0.815061
569.282	0.808046
569.622	0.800334
569.962	0.792676
570.302	0.790608
570.643	0.782121
570.983	0.779485
571.323	0.771067
571.663	0.768225
572.003	0.757259
572.343	0.744351
572.683	0.731980
573.022	0.713815
573.362	0.693133
573.702	0.663950
574.042	0.647200
574.381	0.633990
574.721	0.630276
575.061	0.626504
575.400	0.623747
575.740	0.622230
576.079	0.613362
576.419	0.589057
576.758	0.561056
577.097	0.535169
577.437	0.520737
577.776	0.514615
578.115	0.511570
578.454	0.511001
578.794	0.524726
579.133	0.534160
579.472	0.540074
579.811	0.528284
580.150	0.496250
580.489	0.459763
580.828	0.428790
581.167	0.407662
581.505	0.392720
581.844	0.392160
582.183	0.406610
582.522	0.441031
582.860	0.482871
583.199	0.519897
583.538	0.537013
583.876	0.539820
584.215	0.525128
584.553	0.507272
584.891	0.492830
585.230	0.489080
585.568	0.491143
585.906	0.496537
586.245	0.503657
586.583	0.511966
586.921	0.517257
587.259	0.518413
587.597	0.520049
587.935	0.528442
588.273	0.546085
588.611	0.567249
588.949	0.583822
589.287	0.586712
589.625	0.585000
589.963	0.585365
590.300	0.578568
590.638	0.580193
590.976	0.578146
591.313	0.573379
591.651	0.571835
591.989	0.567481
592.326	0.563300
592.664	0.561619
593.001	0.555636
593.338	0.547651
593.676	0.544782
594.013	0.549311
594.350	0.553994
594.687	0.548720
595.025	0.546015
595.362	0.543040
595.699	0.543072
596.036	0.544908
596.373	0.543593
596.710	0.543324
597.047	0.538563
597.384	0.535129
597.720	0.534541
598.057	0.533077
598.394	0.532708
598.731	0.526627
599.067	0.525075
599.404	0.521440
599.741	0.523281
600.077	0.523384
600.414	0.518444
600.750	0.522371
601.087	0.516141
601.423	0.516219
601.759	0.514435
602.096	0.514960
602.432	0.511281
602.768	0.507837
603.104	0.503536
603.440	0.506001
603.776	0.506577
604.112	0.503353
604.448	0.501997
604.784	0.501800
605.120	0.499886
