Date	2022年08月02日火曜日 02時10分01秒
Spectrometers	USB2+H05879
ダーク	使用
リファレンス	使用
積分時間[msec]	12
平均回数	10000
ｽﾑｰｼﾞﾝｸﾞ	0
Electrical Dark	USE
ピクセル数	2048
計測モード	吸光度
保存開始波長[nm]	190.664
保存終了波長[nm]	884.878
保存ﾋﾟｯﾁ波長[nm]	全波長

>>>>>>>>>> Data Start <<<<<<<<<<<<
190.664	0.000000
191.040	0.000000
191.415	0.000000
191.791	0.000000
192.166	0.000000
192.542	0.870496
192.917	0.713745
193.293	0.412923
193.668	0.000000
194.044	0.000000
194.419	0.937423
194.794	0.000000
195.170	0.000000
195.545	0.000000
195.920	0.000000
196.296	0.988668
196.671	0.000000
197.046	2.078867
197.421	0.000000
197.796	0.000000
198.171	0.000000
198.546	0.000000
198.922	0.000000
199.297	0.000000
199.672	0.000000
200.047	0.000000
200.422	0.000000
200.796	0.000000
201.171	0.437952
201.546	0.000000
201.921	0.000000
202.296	0.000000
202.671	0.000000
203.045	0.446181
203.420	0.000000
203.795	0.141922
204.170	0.000000
204.544	0.000000
204.919	0.000000
205.294	0.676677
205.668	0.647727
206.043	0.000000
206.417	0.000000
206.792	0.000000
207.166	0.480214
207.541	0.063805
207.915	0.925554
208.289	0.471031
208.664	0.000000
209.038	0.000000
209.412	0.470897
209.787	0.605506
210.161	0.000000
210.535	0.000000
210.909	0.000000
211.284	0.000000
211.658	1.790525
212.032	0.000000
212.406	0.000000
212.780	0.070667
213.154	0.000000
213.528	0.000000
213.902	-0.813981
214.276	0.000000
214.650	0.268144
215.024	0.132437
215.398	0.678502
215.772	0.000000
216.145	0.000000
216.519	0.514530
216.893	0.619811
217.267	0.000000
217.640	0.000000
218.014	0.000000
218.388	0.000000
218.761	0.129822
219.135	0.000000
219.508	0.000000
219.882	0.000000
220.256	0.000000
220.629	0.000000
221.003	0.000000
221.376	0.000000
221.749	0.279515
222.123	0.072440
222.496	1.327024
222.869	0.000000
223.243	0.000000
223.616	0.000000
223.989	0.000000
224.362	0.000000
224.736	1.586544
225.109	0.000000
225.482	0.000000
225.855	0.000000
226.228	0.290382
226.601	0.000000
226.974	0.711871
227.347	0.000000
227.720	0.253937
228.093	0.000000
228.466	0.000000
228.839	0.000000
229.212	0.000000
229.585	0.244342
229.957	0.000000
230.330	0.471846
230.703	0.000000
231.076	0.000000
231.448	0.000000
231.821	-0.175004
232.194	0.556991
232.566	0.000000
232.939	0.000000
233.311	0.000000
233.684	0.000000
234.056	0.000000
234.429	0.000000
234.801	0.000000
235.174	0.000000
235.546	0.000000
235.918	0.000000
236.291	0.000000
236.663	0.516361
237.035	0.541279
237.408	0.000000
237.780	0.000000
238.152	0.367959
238.524	0.415758
238.896	0.000000
239.268	0.000000
239.641	0.000000
240.013	0.000000
240.385	0.000000
240.757	0.000000
241.129	0.000000
241.500	0.000000
241.872	1.055161
242.244	1.664857
242.616	0.000000
242.988	0.000000
243.360	0.000000
243.731	0.797464
244.103	0.000000
244.475	0.000000
244.847	0.000000
245.218	0.000000
245.590	0.000000
245.961	0.000000
246.333	0.000000
246.705	0.000000
247.076	0.650708
247.448	0.688061
247.819	0.000000
248.190	0.265811
248.562	0.000000
248.933	0.000000
249.305	0.326964
249.676	0.000000
250.047	0.000000
250.418	0.000000
250.790	0.000000
251.161	2.267874
251.532	1.214541
251.903	0.471961
252.274	1.199122
252.645	0.000000
253.016	0.633185
253.387	0.547533
253.758	0.000000
254.129	0.705357
254.500	0.770864
254.871	0.087731
255.242	0.398298
255.613	0.000000
255.984	0.000000
256.355	0.000000
256.725	1.138982
257.096	0.000000
257.467	0.304274
257.838	0.000000
258.208	0.000000
258.579	0.000000
258.949	0.773163
259.320	0.928639
259.690	0.458681
260.061	0.000000
260.431	0.560549
260.802	0.000000
261.172	0.430843
261.543	0.560291
261.913	0.000000
262.283	0.101597
262.654	0.000000
263.024	1.138641
263.394	0.981595
263.764	0.000000
264.135	0.874671
264.505	0.000000
264.875	0.000000
265.245	0.455882
265.615	0.000000
265.985	0.000000
266.355	0.000000
266.725	0.482043
267.095	1.662549
267.465	0.000000
267.835	0.274353
268.205	0.000000
268.575	0.305169
268.944	0.000000
269.314	0.787731
269.684	0.663227
270.054	0.437276
270.423	0.000000
270.793	0.472353
271.163	1.354786
271.532	0.727947
271.902	0.677802
272.271	0.964986
272.641	0.000000
273.010	0.000000
273.380	0.000000
273.749	0.000000
274.119	1.291749
274.488	0.000000
274.857	0.000000
275.227	0.000000
275.596	0.000000
275.965	0.000000
276.335	0.000000
276.704	0.000000
277.073	0.459481
277.442	0.000000
277.811	1.733745
278.180	0.361308
278.549	0.000000
278.918	0.447047
279.287	0.427506
279.656	0.000000
280.025	0.000000
280.394	0.236270
280.763	0.456233
281.132	0.000000
281.501	0.000000
281.869	0.409034
282.238	0.996388
282.607	0.620174
282.976	0.000000
283.344	0.000000
283.713	0.000000
284.081	0.413290
284.450	0.589933
284.819	0.797586
285.187	0.082984
285.556	0.000000
285.924	0.000000
286.292	0.000000
286.661	0.000000
287.029	1.184563
287.398	-0.021550
287.766	0.000000
288.134	0.000000
288.502	0.000000
288.871	0.000000
289.239	0.000000
289.607	0.000000
289.975	0.197449
290.343	0.000000
290.711	0.000000
291.079	0.000000
291.447	0.000000
291.815	0.545934
292.183	0.347476
292.551	0.699497
292.919	0.000000
293.287	0.632023
293.655	0.492313
294.022	0.658711
294.390	0.000000
294.758	0.463861
295.126	0.000000
295.493	0.478350
295.861	0.000000
296.229	0.000000
296.596	0.000000
296.964	0.000000
297.331	0.000000
297.699	0.397463
298.066	0.000000
298.434	0.000000
298.801	0.000000
299.168	0.000000
299.536	0.000000
299.903	0.000000
300.270	0.407596
300.638	0.000000
301.005	1.699366
301.372	0.000000
301.739	1.008264
302.106	0.000000
302.473	0.135424
302.840	0.000000
303.207	0.000000
303.574	0.000000
303.941	0.000000
304.308	0.000000
304.675	0.000000
305.042	0.337069
305.409	0.000000
305.776	3.473042
306.143	1.107472
306.509	2.178806
306.876	0.783514
307.243	0.000000
307.610	1.295561
307.976	0.000000
308.343	1.027652
308.709	0.000000
309.076	1.121275
309.442	0.000000
309.809	0.000000
310.175	0.959789
310.542	1.145561
310.908	0.000000
311.275	0.000000
311.641	0.000000
312.007	0.000000
312.373	0.000000
312.740	0.000000
313.106	1.950208
313.472	1.061581
313.838	0.000000
314.204	0.000000
314.570	1.695252
314.936	1.505174
315.302	0.000000
315.668	1.664244
316.034	1.504378
316.400	1.618619
316.766	0.000000
317.132	1.518648
317.498	1.230850
317.864	1.972612
318.230	0.000000
318.595	1.686397
318.961	2.303233
319.327	0.000000
319.692	1.523291
320.058	0.000000
320.424	1.685458
320.789	2.090554
321.155	1.907676
321.520	0.000000
321.886	0.000000
322.251	0.000000
322.616	2.358375
322.982	0.000000
323.347	1.886411
323.712	1.914575
324.078	0.000000
324.443	0.000000
324.808	2.005774
325.173	0.000000
325.539	0.000000
325.904	2.275928
326.269	2.564206
326.634	2.306981
326.999	1.955662
327.364	1.808495
327.729	2.336032
328.094	0.000000
328.459	1.891047
328.823	2.250285
329.188	1.803435
329.553	2.285376
329.918	2.649080
330.283	1.932213
330.647	2.148365
331.012	2.095450
331.377	2.001700
331.741	1.733365
332.106	1.969483
332.470	3.301581
332.835	2.232389
333.199	2.535430
333.564	2.315445
333.928	2.045896
334.293	1.841867
334.657	2.148410
335.021	2.123445
335.386	2.486286
335.750	2.348836
336.114	2.061728
336.478	2.096194
336.843	2.982658
337.207	2.520040
337.571	2.070604
337.935	0.000000
338.299	2.338141
338.663	2.626399
339.027	2.281590
339.391	1.948469
339.755	2.049105
340.119	2.253438
340.483	1.859479
340.846	2.041133
341.210	2.147604
341.574	1.863605
341.938	1.935861
342.301	2.108766
342.665	2.203932
343.029	3.232233
343.392	2.203134
343.756	2.085997
344.119	1.987189
344.483	2.237301
344.846	1.967404
345.210	1.934736
345.573	1.958619
345.937	1.983123
346.300	2.125077
346.663	1.794040
347.027	2.190419
347.390	2.508441
347.753	2.175304
348.116	2.008188
348.479	2.075973
348.843	2.285831
349.206	2.000488
349.569	2.013044
349.932	2.181038
350.295	2.004432
350.658	2.346827
351.021	1.973533
351.383	2.262061
351.746	2.223017
352.109	2.176058
352.472	2.427735
352.835	2.155888
353.197	2.048003
353.560	1.969663
353.923	2.077951
354.285	1.914757
354.648	2.078994
355.011	2.178799
355.373	2.010672
355.736	2.019822
356.098	2.114745
356.461	2.198540
356.823	2.179642
357.185	2.072406
357.548	1.944190
357.910	1.932606
358.272	2.051519
358.635	2.088272
358.997	2.100728
359.359	2.020699
359.721	1.915427
360.083	2.179639
360.445	2.212848
360.807	2.066187
361.169	2.113318
361.531	2.075240
361.893	2.018622
362.255	1.985867
362.617	2.027032
362.979	1.960049
363.341	2.036707
363.703	1.831685
364.064	2.125905
364.426	2.115774
364.788	2.064073
365.149	2.011017
365.511	2.142559
365.873	2.044051
366.234	2.073461
366.596	2.138397
366.957	2.082003
367.319	2.106472
367.680	1.997229
368.042	1.962769
368.403	2.042085
368.764	1.958322
369.126	2.049473
369.487	2.107751
369.848	2.061246
370.209	2.103672
370.570	2.072698
370.931	2.113800
371.293	2.503540
371.654	2.223942
372.015	2.078324
372.376	2.084622
372.737	2.370135
373.098	2.454717
373.458	2.319876
373.819	2.326998
374.180	2.203650
374.541	2.681217
374.902	2.112311
375.263	2.005319
375.623	1.954037
375.984	2.199308
376.345	1.989150
376.705	2.147759
377.066	2.253440
377.426	2.132355
377.787	1.969229
378.147	1.996620
378.508	2.129573
378.868	1.983734
379.228	2.032008
379.589	2.046461
379.949	2.087242
380.309	2.029544
380.670	2.284761
381.030	2.147126
381.390	2.125872
381.750	2.083421
382.110	2.215825
382.470	2.165232
382.830	2.071282
383.190	1.998851
383.550	1.976573
383.910	2.150330
384.270	2.074818
384.630	2.165304
384.990	2.198565
385.350	2.159431
385.709	2.054997
386.069	2.156723
386.429	2.022582
386.788	2.216207
387.148	2.152663
387.508	2.289436
387.867	2.259133
388.227	2.161962
388.586	2.324843
388.946	2.147368
389.305	2.344402
389.665	2.191342
390.024	2.147192
390.383	2.215858
390.743	2.175840
391.102	2.191185
391.461	2.115448
391.820	2.100526
392.179	2.125377
392.539	2.002055
392.898	2.037019
393.257	2.325694
393.616	2.137593
393.975	2.082897
394.334	2.136217
394.693	2.009133
395.051	2.010242
395.410	2.191208
395.769	2.079926
396.128	2.167199
396.487	2.015572
396.845	2.024623
397.204	2.094645
397.563	2.033675
397.921	2.013536
398.280	2.196010
398.638	2.227015
398.997	2.203097
399.355	2.262839
399.714	2.215926
400.072	2.053044
400.431	1.991458
400.789	2.139246
401.147	2.020401
401.506	2.215588
401.864	2.135191
402.222	2.142825
402.580	2.004197
402.938	2.096930
403.297	2.535135
403.655	1.973329
404.013	2.111969
404.371	1.955371
404.729	2.184898
405.087	2.021727
405.444	2.197661
405.802	1.991201
406.160	1.986511
406.518	2.185252
406.876	2.168298
407.233	2.121225
407.591	1.952174
407.949	1.991650
408.306	2.304772
408.664	2.064059
409.022	2.072869
409.379	2.103176
409.737	2.219442
410.094	2.199343
410.451	2.014100
410.809	2.104330
411.166	2.072093
411.523	2.146337
411.881	1.939053
412.238	2.027586
412.595	2.097315
412.952	2.063847
413.310	2.073446
413.667	1.979849
414.024	2.278614
414.381	2.066413
414.738	2.124126
415.095	2.102618
415.452	2.015123
415.809	1.930494
416.165	1.932471
416.522	2.078894
416.879	1.965565
417.236	1.981684
417.593	1.980887
417.949	1.948657
418.306	2.002405
418.663	2.099913
419.019	2.032200
419.376	1.982915
419.732	2.006890
420.089	2.014111
420.445	1.880687
420.802	1.972044
421.158	2.001008
421.514	1.955008
421.871	1.991507
422.227	2.000531
422.583	2.028618
422.939	2.036019
423.295	1.990598
423.652	1.933539
424.008	1.981758
424.364	1.909435
424.720	2.036892
425.076	2.142644
425.432	2.128198
425.788	1.996698
426.143	2.005501
426.499	1.958001
426.855	1.911302
427.211	2.071177
427.567	1.946456
427.922	1.907343
428.278	2.004993
428.634	1.968561
428.989	1.938569
429.345	2.026865
429.700	1.869997
430.056	1.927366
430.411	1.872754
430.767	1.995243
431.122	1.886348
431.478	1.977836
431.833	1.859238
432.188	1.975625
432.543	2.146778
432.899	1.839122
433.254	2.072021
433.609	2.001418
433.964	1.919910
434.319	1.928621
434.674	1.893266
435.029	1.866119
435.384	1.862563
435.739	1.949703
436.094	1.856352
436.449	1.826610
436.804	1.878721
437.158	1.922957
437.513	1.965317
437.868	1.829545
438.223	1.881335
438.577	1.816414
438.932	1.907746
439.287	1.977954
439.641	1.929190
439.996	1.836682
440.350	1.937704
440.704	1.892031
441.059	1.841761
441.413	1.854290
441.768	1.822815
442.122	1.863363
442.476	1.823041
442.830	1.901417
443.185	1.784675
443.539	1.777720
443.893	1.818770
444.247	1.784749
444.601	1.838262
444.955	1.838666
445.309	1.821377
445.663	1.777355
446.017	1.778553
446.371	1.783585
446.724	1.808077
447.078	1.704704
447.432	1.755268
447.786	1.730594
448.139	1.777604
448.493	1.746847
448.847	1.794172
449.200	1.803997
449.554	1.732206
449.907	1.685581
450.261	1.752414
450.614	1.708072
450.968	1.737348
451.321	1.729197
451.674	1.698672
452.027	1.653453
452.381	1.649243
452.734	1.686456
453.087	1.671078
453.440	1.691701
453.793	1.653300
454.146	1.672763
454.499	1.712455
454.852	1.685955
455.205	1.617370
455.558	1.640506
455.911	1.702520
456.264	1.728378
456.617	1.685864
456.970	1.653481
457.322	1.642433
457.675	1.594712
458.028	1.604876
458.380	1.598695
458.733	1.573993
459.086	1.604611
459.438	1.656647
459.791	1.641255
460.143	1.578218
460.496	1.615183
460.848	1.587934
461.200	1.604020
461.553	1.599038
461.905	1.591253
462.257	1.552231
462.609	1.583154
462.961	1.602453
463.314	1.588306
463.666	1.611193
464.018	1.525446
464.370	1.521812
464.722	1.542513
465.074	1.538556
465.426	1.559297
465.777	1.517735
466.129	1.535288
466.481	1.526599
466.833	1.512274
467.184	1.534689
467.536	1.550215
467.888	1.530486
468.239	1.543896
468.591	1.486895
468.943	1.473480
469.294	1.488917
469.646	1.482913
469.997	1.465295
470.348	1.493667
470.700	1.505973
471.051	1.443568
471.402	1.495223
471.754	1.500799
472.105	1.463984
472.456	1.493767
472.807	1.476952
473.158	1.472776
473.509	1.434716
473.860	1.463688
474.211	1.468096
474.562	1.438110
474.913	1.479153
475.264	1.472429
475.615	1.414264
475.966	1.443664
476.316	1.426024
476.667	1.417847
477.018	1.443381
477.368	1.428377
477.719	1.461555
478.070	1.408470
478.420	1.414828
478.771	1.404602
479.121	1.406264
479.472	1.402344
479.822	1.399049
480.172	1.423496
480.523	1.380969
480.873	1.383783
481.223	1.392742
481.573	1.424046
481.924	1.391367
482.274	1.384952
482.624	1.365704
482.974	1.378047
483.324	1.377569
483.674	1.377078
484.024	1.369230
484.374	1.366123
484.724	1.366115
485.073	1.364220
485.423	1.349811
485.773	1.346676
486.123	1.330605
486.472	1.327442
486.822	1.339810
487.172	1.346399
487.521	1.331858
487.871	1.315686
488.220	1.336847
488.570	1.327906
488.919	1.318542
489.268	1.331956
489.618	1.322404
489.967	1.338802
490.316	1.327241
490.666	1.338472
491.015	1.295927
491.364	1.313267
491.713	1.307147
492.062	1.305471
492.411	1.285421
492.760	1.296193
493.109	1.298202
493.458	1.304300
493.807	1.299758
494.156	1.295591
494.505	1.304195
494.853	1.290330
495.202	1.270678
495.551	1.276583
495.900	1.282017
496.248	1.291304
496.597	1.259407
496.945	1.286466
497.294	1.275733
497.642	1.265934
497.991	1.255135
498.339	1.257987
498.688	1.257970
499.036	1.256220
499.384	1.243548
499.732	1.254428
500.081	1.236833
500.429	1.238495
500.777	1.228904
501.125	1.238448
501.473	1.222425
501.821	1.227342
502.169	1.242826
502.517	1.222257
502.865	1.233787
503.213	1.215322
503.561	1.217412
503.908	1.214264
504.256	1.210979
504.604	1.198428
504.952	1.222363
505.299	1.228854
505.647	1.222613
505.994	1.213209
506.342	1.200426
506.689	1.177939
507.037	1.192966
507.384	1.189209
507.732	1.196528
508.079	1.202058
508.426	1.188264
508.774	1.173180
509.121	1.184989
509.468	1.196316
509.815	1.164599
510.162	1.174782
510.509	1.165606
510.856	1.164805
511.203	1.188741
511.550	1.178893
511.897	1.189630
512.244	1.148991
512.591	1.167258
512.938	1.175788
513.284	1.151162
513.631	1.145572
513.978	1.134784
514.324	1.142110
514.671	1.137375
515.018	1.155019
515.364	1.145906
515.711	1.140899
516.057	1.140265
516.403	1.137850
516.750	1.153322
517.096	1.129694
517.443	1.138483
517.789	1.136997
518.135	1.132163
518.481	1.144902
518.827	1.125621
519.173	1.114284
519.519	1.120801
519.865	1.111673
520.211	1.106765
520.557	1.109455
520.903	1.116567
521.249	1.093506
521.595	1.110505
521.941	1.103333
522.287	1.104067
522.632	1.114973
522.978	1.112424
523.324	1.089129
523.669	1.087922
524.015	1.105433
524.360	1.102067
524.706	1.103052
525.051	1.092129
525.397	1.078697
525.742	1.093234
526.087	1.091536
526.433	1.086003
526.778	1.079332
527.123	1.069213
527.468	1.078734
527.813	1.066050
528.158	1.072828
528.504	1.075639
528.849	1.055281
529.193	1.065134
529.538	1.056517
529.883	1.075407
530.228	1.083893
530.573	1.052875
530.918	1.055235
531.263	1.064304
531.607	1.040554
531.952	1.035810
532.296	1.037950
532.641	1.043983
532.986	1.029873
533.330	1.040953
533.675	1.032867
534.019	1.034428
534.363	1.030220
534.708	1.025865
535.052	1.024601
535.396	1.021672
535.741	1.018009
536.085	1.019909
536.429	0.999908
536.773	1.012026
537.117	1.005919
537.461	1.007298
537.805	1.016795
538.149	0.999653
538.493	0.990749
538.837	1.000177
539.181	0.998249
539.524	1.005988
539.868	0.991790
540.212	0.981537
540.556	0.975095
540.899	0.988313
541.243	0.987382
541.586	0.964390
541.930	0.993522
542.273	0.975448
542.617	0.979753
542.960	0.976387
543.304	0.953741
543.647	0.958268
543.990	0.953053
544.333	0.948314
544.677	0.948992
545.020	0.943094
545.363	0.946190
545.706	0.936366
546.049	0.933814
546.392	0.936369
546.735	0.932008
547.078	0.920958
547.421	0.924020
547.764	0.913294
548.106	0.913680
548.449	0.920154
548.792	0.915449
549.135	0.909154
549.477	0.902745
549.820	0.898874
550.162	0.903683
550.505	0.886240
550.847	0.877590
551.190	0.881291
551.532	0.888945
551.875	0.877422
552.217	0.873606
552.559	0.875031
552.901	0.867537
553.244	0.864759
553.586	0.858266
553.928	0.855916
554.270	0.852591
554.612	0.841324
554.954	0.848565
555.296	0.836692
555.638	0.841343
555.980	0.834805
556.322	0.829514
556.663	0.812873
557.005	0.819375
557.347	0.811593
557.689	0.808074
558.030	0.807379
558.372	0.813096
558.713	0.806133
559.055	0.798673
559.396	0.790114
559.738	0.779798
560.079	0.783458
560.421	0.775619
560.762	0.779288
561.103	0.778812
561.444	0.773341
561.786	0.759845
562.127	0.762797
562.468	0.757447
562.809	0.748084
563.150	0.748269
563.491	0.750368
563.832	0.740392
564.173	0.730597
564.514	0.719722
564.855	0.727320
565.195	0.723884
565.536	0.716550
565.877	0.718110
566.218	0.709903
566.558	0.704605
566.899	0.698622
567.239	0.699289
567.580	0.691330
567.920	0.685409
568.261	0.684124
568.601	0.679280
568.941	0.676026
569.282	0.673638
569.622	0.670191
569.962	0.668044
570.302	0.660458
570.643	0.658595
570.983	0.651101
571.323	0.647883
571.663	0.646654
572.003	0.646108
572.343	0.634210
572.683	0.624261
573.022	0.608446
573.362	0.593022
573.702	0.567277
574.042	0.545461
574.381	0.529583
574.721	0.527117
575.061	0.523039
575.400	0.522253
575.740	0.521328
576.079	0.520658
576.419	0.504146
576.758	0.475805
577.097	0.446707
577.437	0.427303
577.776	0.418725
578.115	0.417808
578.454	0.415311
578.794	0.427147
579.133	0.438502
579.472	0.449606
579.811	0.451555
580.150	0.428821
580.489	0.390595
580.828	0.354032
581.167	0.328077
581.505	0.310494
581.844	0.305475
582.183	0.309616
582.522	0.342675
582.860	0.386044
583.199	0.429309
583.538	0.461289
583.876	0.472212
584.215	0.462734
584.553	0.443962
584.891	0.423394
585.230	0.415320
585.568	0.414762
585.906	0.420126
586.245	0.428344
586.583	0.437969
586.921	0.447775
587.259	0.451261
587.597	0.450073
587.935	0.455449
588.273	0.471121
588.611	0.493378
588.949	0.515114
589.287	0.518019
589.625	0.513727
589.963	0.518790
590.300	0.515819
590.638	0.514501
590.976	0.510926
591.313	0.509137
591.651	0.506306
591.989	0.507955
592.326	0.501977
592.664	0.500220
593.001	0.497655
593.338	0.489822
593.676	0.484477
594.013	0.485474
594.350	0.492706
594.687	0.488918
595.025	0.490301
595.362	0.487549
595.699	0.487287
596.036	0.487284
596.373	0.484159
596.710	0.484895
597.047	0.483765
597.384	0.484600
597.720	0.481362
598.057	0.479311
598.394	0.477826
598.731	0.478123
599.067	0.478064
599.404	0.472599
599.741	0.470069
600.077	0.470617
600.414	0.466171
600.750	0.470547
601.087	0.466984
601.423	0.461625
601.759	0.461995
602.096	0.460818
602.432	0.460773
602.768	0.459731
603.104	0.458147
603.440	0.457517
603.776	0.458336
604.112	0.456939
604.448	0.458338
604.784	0.456967
605.120	0.459250
605.456	0.450229
