Date	2021年06月15日火曜日 05時54分53秒
Spectrometers	USB2+H05879
ダーク	使用
リファレンス	使用
積分時間[msec]	10
平均回数	280
ｽﾑｰｼﾞﾝｸﾞ	10
Electrical Dark	USE
ピクセル数	2048
計測モード	吸光度
保存開始波長[nm]	190.664
保存終了波長[nm]	884.878
保存ﾋﾟｯﾁ波長[nm]	全波長

>>>>>>>>>> Data Start <<<<<<<<<<<<
190.664	0.000000
191.040	0.000000
191.415	0.000000
191.791	-2.610799
192.166	-0.828154
192.542	-1.012137
192.917	0.000000
193.293	-0.567947
193.668	-0.525097
194.044	-1.011332
194.419	0.000000
194.794	-1.469715
195.170	-1.386358
195.545	-1.294668
195.920	-1.157631
196.296	-1.032955
196.671	-0.867060
197.046	-0.717960
197.421	-0.660417
197.796	-0.649085
198.171	-0.610803
198.546	-0.569585
198.922	-0.516580
199.297	-0.486425
199.672	-0.461495
200.047	-0.435485
200.422	-0.403519
200.796	-0.387821
201.171	-0.377234
201.546	-0.371989
201.921	-0.368331
202.296	-0.350984
202.671	-0.315026
203.045	-0.289292
203.420	-0.279870
203.795	-0.269638
204.170	-0.259502
204.544	-0.255288
204.919	-0.253363
205.294	-0.252930
205.668	-0.239358
206.043	-0.231861
206.417	-0.228993
206.792	-0.220973
207.166	-0.219083
207.541	-0.220093
207.915	-0.224180
208.289	-0.211891
208.664	-0.215171
209.038	-0.212248
209.412	-0.198005
209.787	-0.179834
210.161	-0.167940
210.535	-0.173918
210.909	-0.166131
211.284	-0.155977
211.658	-0.152175
212.032	-0.154292
212.406	-0.164518
212.780	-0.163140
213.154	-0.162503
213.528	-0.167832
213.902	-0.165843
214.276	-0.160361
214.650	-0.164568
215.024	-0.161332
215.398	-0.152538
215.772	-0.144679
216.145	-0.147723
216.519	-0.130289
216.893	-0.125734
217.267	-0.121593
217.640	-0.126074
218.014	-0.120127
218.388	-0.113004
218.761	-0.117221
219.135	-0.106288
219.508	-0.112758
219.882	-0.119420
220.256	-0.111391
220.629	-0.104622
221.003	-0.103102
221.376	-0.098913
221.749	-0.100518
222.123	-0.100548
222.496	-0.098681
222.869	-0.094674
223.243	-0.090036
223.616	-0.089974
223.989	-0.095480
224.362	-0.103279
224.736	-0.107107
225.109	-0.108507
225.482	-0.106118
225.855	-0.109656
226.228	-0.115447
226.601	-0.117740
226.974	-0.117301
227.347	-0.109399
227.720	-0.099143
228.093	-0.097709
228.466	-0.101271
228.839	-0.103858
229.212	-0.109520
229.585	-0.116903
229.957	-0.123569
230.330	-0.120782
230.703	-0.119437
231.076	-0.126850
231.448	-0.128608
231.821	-0.124132
232.194	-0.122229
232.566	-0.117965
232.939	-0.127925
233.311	-0.130960
233.684	-0.124957
234.056	-0.121498
234.429	-0.114078
234.801	-0.120893
235.174	-0.114386
235.546	-0.116907
235.918	-0.118942
236.291	-0.116701
236.663	-0.107230
237.035	-0.106852
237.408	-0.095021
237.780	-0.083407
238.152	-0.083286
238.524	-0.088397
238.896	-0.084730
239.268	-0.085427
239.641	-0.086652
240.013	-0.075678
240.385	-0.072703
240.757	-0.072069
241.129	-0.064764
241.500	-0.070266
241.872	-0.065313
242.244	-0.063895
242.616	-0.069035
242.988	-0.071087
243.360	-0.059073
243.731	-0.047727
244.103	-0.049329
244.475	-0.050519
244.847	-0.041917
245.218	-0.039895
245.590	-0.037653
245.961	-0.034315
246.333	-0.030758
246.705	-0.033796
247.076	-0.027908
247.448	-0.017304
247.819	-0.017808
248.190	-0.008904
248.562	-0.007947
248.933	-0.005252
249.305	-0.000776
249.676	0.003200
250.047	-0.000023
250.418	0.010006
250.790	0.012456
251.161	0.002329
251.532	-0.005021
251.903	-0.001893
252.274	0.002029
252.645	0.006362
253.016	0.004331
253.387	0.005043
253.758	0.000808
254.129	-0.003030
254.500	0.007013
254.871	0.007871
255.242	0.004005
255.613	-0.004389
255.984	-0.014416
256.355	-0.005631
256.725	-0.001835
257.096	0.000231
257.467	0.001262
257.838	0.001653
258.208	0.001080
258.579	-0.002201
258.949	-0.000513
259.320	0.010105
259.690	0.009851
260.061	0.015024
260.431	0.012775
260.802	0.014602
261.172	0.011945
261.543	0.017211
261.913	0.023486
262.283	0.016686
262.654	0.014787
263.024	0.011695
263.394	0.020363
263.764	0.026348
264.135	0.029214
264.505	0.022169
264.875	0.021195
265.245	0.015971
265.615	0.015665
265.985	0.020463
266.355	0.027451
266.725	0.031309
267.095	0.025652
267.465	0.033897
267.835	0.023976
268.205	0.019101
268.575	0.023295
268.944	0.027380
269.314	0.025493
269.684	0.021073
270.054	0.017724
270.423	0.019862
270.793	0.024205
271.163	0.022192
271.532	0.019387
271.902	0.017316
272.271	0.019027
272.641	0.025378
273.010	0.024862
273.380	0.024783
273.749	0.018829
274.119	0.014914
274.488	0.014729
274.857	0.017569
275.227	0.010871
275.596	0.009574
275.965	0.017934
276.335	0.015649
276.704	0.011587
277.073	0.011309
277.442	0.015155
277.811	0.025196
278.180	0.030910
278.549	0.031293
278.918	0.028391
279.287	0.028055
279.656	0.036390
280.025	0.038096
280.394	0.030655
280.763	0.035089
281.132	0.038808
281.501	0.039869
281.869	0.036785
282.238	0.037314
282.607	0.031257
282.976	0.031896
283.344	0.038535
283.713	0.033877
284.081	0.033135
284.450	0.038666
284.819	0.045695
285.187	0.053712
285.556	0.049009
285.924	0.036543
286.292	0.032387
286.661	0.033884
287.029	0.039707
287.398	0.031961
287.766	0.027854
288.134	0.026761
288.502	0.025240
288.871	0.029506
289.239	0.034949
289.607	0.041787
289.975	0.038757
290.343	0.042844
290.711	0.043152
291.079	0.042849
291.447	0.048359
291.815	0.054946
292.183	0.054133
292.551	0.051475
292.919	0.049790
293.287	0.056865
293.655	0.064572
294.022	0.065862
294.390	0.072805
294.758	0.073955
295.126	0.077451
295.493	0.079429
295.861	0.087477
296.229	0.084750
296.596	0.088110
296.964	0.085998
297.331	0.085025
297.699	0.093361
298.066	0.097746
298.434	0.099588
298.801	0.108189
299.168	0.103791
299.536	0.102499
299.903	0.099925
300.270	0.105804
300.638	0.111762
301.005	0.119831
301.372	0.126497
301.739	0.129527
302.106	0.128595
302.473	0.131945
302.840	0.136319
303.207	0.159350
303.574	0.171777
303.941	0.192232
304.308	0.200474
304.675	0.215526
305.042	0.229908
305.409	0.246227
305.776	0.259677
306.143	0.280655
306.509	0.297849
306.876	0.329752
307.243	0.350550
307.610	0.380446
307.976	0.401698
308.343	0.427800
308.709	0.451083
309.076	0.482188
309.442	0.515675
309.809	0.543723
310.175	0.575799
310.542	0.603947
310.908	0.618745
311.275	0.645202
311.641	0.669900
312.007	0.696538
312.373	0.722983
312.740	0.748149
313.106	0.773033
313.472	0.805789
313.838	0.834322
314.204	0.856673
314.570	0.874186
314.936	0.897681
315.302	0.914124
315.668	0.932348
316.034	0.952678
316.400	0.975955
316.766	0.994395
317.132	1.016902
317.498	1.036636
317.864	1.052563
318.230	1.069459
318.595	1.089521
318.961	1.105465
319.327	1.123333
319.692	1.135807
320.058	1.144758
320.424	1.158068
320.789	1.168634
321.155	1.180199
321.520	1.192531
321.886	1.207503
322.251	1.217724
322.616	1.228470
322.982	1.239671
323.347	1.247668
323.712	1.258306
324.078	1.263286
324.443	1.270813
324.808	1.276285
325.173	1.283804
325.539	1.289932
325.904	1.295569
326.269	1.300453
326.634	1.304834
326.999	1.308362
327.364	1.312900
327.729	1.319196
328.094	1.325975
328.459	1.332179
328.823	1.334717
329.188	1.338355
329.553	1.339052
329.918	1.343076
330.283	1.345241
330.647	1.349383
331.012	1.354012
331.377	1.354841
331.741	1.355792
332.106	1.358330
332.470	1.360080
332.835	1.361467
333.199	1.362661
333.564	1.366474
333.928	1.368316
334.293	1.369460
334.657	1.369484
335.021	1.371607
335.386	1.372446
335.750	1.371953
336.114	1.372567
336.478	1.373480
336.843	1.373949
337.207	1.374960
337.571	1.377657
337.935	1.378257
338.299	1.377323
338.663	1.376584
339.027	1.378823
339.391	1.380294
339.755	1.380691
340.119	1.380142
340.483	1.379850
340.846	1.380940
341.210	1.380082
341.574	1.380450
341.938	1.381156
342.301	1.382102
342.665	1.382095
343.029	1.382603
343.392	1.383822
343.756	1.383390
344.119	1.383710
344.483	1.383906
344.846	1.384535
345.210	1.384006
345.573	1.384257
345.937	1.384560
346.300	1.385569
346.663	1.384465
347.027	1.384810
347.390	1.384812
347.753	1.385774
348.116	1.386249
348.479	1.386039
348.843	1.385726
349.206	1.385032
349.569	1.384978
349.932	1.385514
350.295	1.385526
350.658	1.385319
351.021	1.385612
351.383	1.386362
351.746	1.386381
352.109	1.385502
352.472	1.385370
352.835	1.385078
353.197	1.385585
353.560	1.386879
353.923	1.386387
354.285	1.386516
354.648	1.386334
355.011	1.386326
355.373	1.386431
355.736	1.386859
356.098	1.386982
356.461	1.387471
356.823	1.387493
357.185	1.388326
357.548	1.388434
357.910	1.389594
358.272	1.390023
358.635	1.388984
358.997	1.388525
359.359	1.389560
359.721	1.389748
360.083	1.390251
360.445	1.389987
360.807	1.389718
361.169	1.389278
361.531	1.390479
361.893	1.390754
362.255	1.391447
362.617	1.392018
362.979	1.392138
363.341	1.391556
363.703	1.391782
364.064	1.392085
364.426	1.393267
364.788	1.393115
365.149	1.393165
365.511	1.393055
365.873	1.393685
366.234	1.394844
366.596	1.395166
366.957	1.395291
367.319	1.395929
367.680	1.395807
368.042	1.396236
368.403	1.397267
368.764	1.398174
369.126	1.398089
369.487	1.398995
369.848	1.399459
370.209	1.399841
370.570	1.399480
370.931	1.400781
371.293	1.401598
371.654	1.402148
372.015	1.402878
372.376	1.403706
372.737	1.404414
373.098	1.405335
373.458	1.405843
373.819	1.406486
374.180	1.408518
374.541	1.408732
374.902	1.409936
375.263	1.411243
375.623	1.411936
375.984	1.413257
376.345	1.413849
376.705	1.415059
377.066	1.415640
377.426	1.415416
377.787	1.416270
378.147	1.417702
378.508	1.418278
378.868	1.418841
379.228	1.419516
379.589	1.420052
379.949	1.420907
380.309	1.421990
380.670	1.422545
381.030	1.422867
381.390	1.423718
381.750	1.423345
382.110	1.423822
382.470	1.424404
382.830	1.424693
383.190	1.425797
383.550	1.426046
383.910	1.427055
384.270	1.427520
384.630	1.428247
384.990	1.430013
385.350	1.430654
385.709	1.431441
386.069	1.432781
386.429	1.433596
386.788	1.434887
387.148	1.435927
387.508	1.436848
387.867	1.437334
388.227	1.437699
388.586	1.438805
388.946	1.439619
389.305	1.440263
389.665	1.441713
390.024	1.443167
390.383	1.444358
390.743	1.445343
391.102	1.446267
391.461	1.446650
391.820	1.447765
392.179	1.448109
392.539	1.448909
392.898	1.449998
393.257	1.450885
393.616	1.451685
393.975	1.452444
394.334	1.453548
394.693	1.454612
395.051	1.455340
395.410	1.456354
395.769	1.457763
396.128	1.458936
396.487	1.459504
396.845	1.460606
397.204	1.461304
397.563	1.461195
397.921	1.462008
398.280	1.462196
398.638	1.461967
398.997	1.462832
399.355	1.462743
399.714	1.463733
400.072	1.463308
400.431	1.463110
400.789	1.463228
401.147	1.463444
401.506	1.464107
401.864	1.464318
402.222	1.463986
402.580	1.463821
402.938	1.464580
403.297	1.464626
403.655	1.464699
404.013	1.465380
404.371	1.465815
404.729	1.465736
405.087	1.465478
405.444	1.465690
405.802	1.465938
406.160	1.467002
406.518	1.467003
406.876	1.466859
407.233	1.466783
407.591	1.467814
407.949	1.468672
408.306	1.469245
408.664	1.469459
409.022	1.469820
409.379	1.469962
409.737	1.469908
410.094	1.470047
410.451	1.469457
410.809	1.469681
411.166	1.469585
411.523	1.469506
411.881	1.469383
412.238	1.469179
412.595	1.469115
412.952	1.469048
413.310	1.469264
413.667	1.469319
414.024	1.470524
414.381	1.471861
414.738	1.471993
415.095	1.471774
415.452	1.471705
415.809	1.471824
416.165	1.471807
416.522	1.472088
416.879	1.472113
417.236	1.472563
417.593	1.473062
417.949	1.473691
418.306	1.473779
418.663	1.475026
419.019	1.475673
419.376	1.476085
419.732	1.476286
420.089	1.477722
420.445	1.477959
420.802	1.479054
421.158	1.478565
421.514	1.477611
421.871	1.477415
422.227	1.477051
422.583	1.477400
422.939	1.476470
423.295	1.476381
423.652	1.476420
424.008	1.475938
424.364	1.475748
424.720	1.476177
425.076	1.476075
425.432	1.475525
425.788	1.476099
426.143	1.475311
426.499	1.474604
426.855	1.474513
427.211	1.474725
427.567	1.474722
427.922	1.474809
428.278	1.473010
428.634	1.473140
428.989	1.472895
429.345	1.472213
429.700	1.472208
430.056	1.472759
430.411	1.473905
430.767	1.474104
431.122	1.473911
431.478	1.473939
431.833	1.473783
432.188	1.473162
432.543	1.472985
432.899	1.472822
433.254	1.471594
433.609	1.471227
433.964	1.470834
434.319	1.470365
434.674	1.469942
435.029	1.469438
435.384	1.469028
435.739	1.469459
436.094	1.469297
436.449	1.469351
436.804	1.469136
437.158	1.468860
437.513	1.468322
437.868	1.467392
438.223	1.467182
438.577	1.466419
438.932	1.466279
439.287	1.466048
439.641	1.465197
439.996	1.464333
440.350	1.464063
440.704	1.463996
441.059	1.463222
441.413	1.462164
441.768	1.461369
442.122	1.460976
442.476	1.460007
442.830	1.458785
443.185	1.457656
443.539	1.456574
443.893	1.455129
444.247	1.454120
444.601	1.453477
444.955	1.451500
445.309	1.450145
445.663	1.448601
446.017	1.447352
446.371	1.445573
446.724	1.443815
447.078	1.442088
447.432	1.440982
447.786	1.439145
448.139	1.436717
448.493	1.434994
448.847	1.433428
449.200	1.431594
449.554	1.429878
449.907	1.427901
450.261	1.425717
450.614	1.423895
450.968	1.421273
451.321	1.419015
451.674	1.416473
452.027	1.413922
452.381	1.411901
452.734	1.409817
453.087	1.407257
453.440	1.404722
453.793	1.402182
454.146	1.399708
454.499	1.397932
454.852	1.394886
455.205	1.392359
455.558	1.390544
455.911	1.387933
456.264	1.385750
456.617	1.383787
456.970	1.380940
457.322	1.378246
457.675	1.376135
458.028	1.374112
458.380	1.372320
458.733	1.370087
459.086	1.368229
459.438	1.366091
459.791	1.363703
460.143	1.361009
460.496	1.358887
460.848	1.356738
461.200	1.354317
461.553	1.351676
461.905	1.349311
462.257	1.347076
462.609	1.344712
462.961	1.342219
463.314	1.340113
463.666	1.337467
464.018	1.334683
464.370	1.332706
464.722	1.330437
465.074	1.327947
465.426	1.325574
465.777	1.322997
466.129	1.320662
466.481	1.318239
466.833	1.316126
467.184	1.313716
467.536	1.311473
467.888	1.308934
468.239	1.306621
468.591	1.304111
468.943	1.301341
469.294	1.298431
469.646	1.295531
469.997	1.292421
470.348	1.289498
470.700	1.286549
471.051	1.284135
471.402	1.281975
471.754	1.279357
472.105	1.277100
472.456	1.274882
472.807	1.272435
473.158	1.270453
473.509	1.268641
473.860	1.266537
474.211	1.263961
474.562	1.262235
474.913	1.259939
475.264	1.257591
475.615	1.255129
475.966	1.253030
476.316	1.251096
476.667	1.248936
477.018	1.246819
477.368	1.244880
477.719	1.242744
478.070	1.240752
478.420	1.238670
478.771	1.236308
479.121	1.234050
479.472	1.231934
479.822	1.229781
480.172	1.227546
480.523	1.225369
480.873	1.223059
481.223	1.220113
481.573	1.217192
481.924	1.214132
482.274	1.211381
482.624	1.209065
482.974	1.207240
483.324	1.205846
483.674	1.204733
484.024	1.203679
484.374	1.202732
484.724	1.201454
485.073	1.200079
485.423	1.198673
485.773	1.197261
486.123	1.195871
486.472	1.194332
486.822	1.192966
487.172	1.191682
487.521	1.190292
487.871	1.188791
488.220	1.187363
488.570	1.185910
488.919	1.184249
489.268	1.182264
489.618	1.180228
489.967	1.177583
490.316	1.174287
490.666	1.170775
491.015	1.167110
491.364	1.163594
491.713	1.160054
492.062	1.157235
492.411	1.154733
492.760	1.152208
493.109	1.149729
493.458	1.147281
493.807	1.144988
494.156	1.142563
494.505	1.139868
494.853	1.137347
495.202	1.134856
495.551	1.132137
495.900	1.129733
496.248	1.127244
496.597	1.124749
496.945	1.122296
497.294	1.120058
497.642	1.117747
497.991	1.115141
498.339	1.112641
498.688	1.110245
499.036	1.108159
499.384	1.105974
499.732	1.103558
500.081	1.101477
500.429	1.099153
500.777	1.096999
501.125	1.095029
501.473	1.092684
501.821	1.090555
502.169	1.088445
502.517	1.086313
502.865	1.084278
503.213	1.082171
503.561	1.080080
503.908	1.078187
504.256	1.075955
504.604	1.073688
504.952	1.071577
505.299	1.069381
505.647	1.067234
505.994	1.065039
506.342	1.062744
506.689	1.060563
507.037	1.058600
507.384	1.056125
507.732	1.054074
508.079	1.051867
508.426	1.049574
508.774	1.047455
509.121	1.045419
509.468	1.043364
509.815	1.041385
510.162	1.039268
510.509	1.037268
510.856	1.035334
511.203	1.033349
511.550	1.031399
511.897	1.029354
512.244	1.027369
512.591	1.025336
512.938	1.023406
513.284	1.021498
513.631	1.019751
513.978	1.017789
514.324	1.015930
514.671	1.014152
515.018	1.012067
515.364	1.010246
515.711	1.008392
516.057	1.006577
516.403	1.004695
516.750	1.002957
517.096	1.001166
517.443	0.999411
517.789	0.997809
518.135	0.996062
518.481	0.994179
518.827	0.992553
519.173	0.990873
519.519	0.989167
519.865	0.987568
520.211	0.986084
520.557	0.984396
520.903	0.982424
521.249	0.980697
521.595	0.978796
521.941	0.976848
522.287	0.975136
522.632	0.973148
522.978	0.971469
523.324	0.969752
523.669	0.968065
524.015	0.966168
524.360	0.964336
524.706	0.962643
525.051	0.960727
525.397	0.958910
525.742	0.957073
526.087	0.955401
526.433	0.953746
526.778	0.952310
527.123	0.950896
527.468	0.949249
527.813	0.947888
528.158	0.946442
528.504	0.944689
528.849	0.942990
529.193	0.941545
529.538	0.939981
529.883	0.938144
530.228	0.936086
530.573	0.934389
530.918	0.932666
531.263	0.931094
531.607	0.929530
531.952	0.927921
532.296	0.926297
532.641	0.924746
532.986	0.923102
533.330	0.921301
533.675	0.919819
534.019	0.917897
534.363	0.915816
534.708	0.913879
535.052	0.911747
535.396	0.909892
535.741	0.908268
536.085	0.906487
536.429	0.904596
536.773	0.902677
537.117	0.900990
537.461	0.899232
537.805	0.896990
538.149	0.894750
538.493	0.892549
538.837	0.890363
539.181	0.888083
539.524	0.885714
539.868	0.883412
540.212	0.881186
540.556	0.878921
540.899	0.876531
541.243	0.874349
541.586	0.872140
541.930	0.869870
542.273	0.867745
542.617	0.865394
542.960	0.862855
543.304	0.860146
543.647	0.857361
543.990	0.854579
544.333	0.851683
544.677	0.848995
545.020	0.846472
545.363	0.843849
545.706	0.841204
546.049	0.838527
546.392	0.835970
546.735	0.833313
547.078	0.830423
547.421	0.827503
547.764	0.824508
548.106	0.821227
548.449	0.817814
548.792	0.814579
549.135	0.811195
549.477	0.807837
549.820	0.804639
550.162	0.801458
550.505	0.798320
550.847	0.795190
551.190	0.791746
551.532	0.788193
551.875	0.784201
552.217	0.780296
552.559	0.776481
552.901	0.772703
553.244	0.768911
553.586	0.765104
553.928	0.761491
554.270	0.758065
554.612	0.754564
554.954	0.751099
555.296	0.747668
555.638	0.744117
555.980	0.740218
556.322	0.736142
556.663	0.731792
557.005	0.727377
557.347	0.723050
557.689	0.718891
558.030	0.714725
558.372	0.710649
558.713	0.706611
559.055	0.702681
559.396	0.698614
559.738	0.694444
560.079	0.690054
560.421	0.685715
560.762	0.681468
561.103	0.677213
561.444	0.673055
561.786	0.669014
562.127	0.664922
562.468	0.660777
562.809	0.656564
563.150	0.652174
563.491	0.647714
563.832	0.643035
564.173	0.638209
564.514	0.633209
564.855	0.627937
565.195	0.622512
565.536	0.617133
565.877	0.611813
566.218	0.606654
566.558	0.601618
566.899	0.596849
567.239	0.592306
567.580	0.588063
567.920	0.584123
568.261	0.580559
568.601	0.577110
568.941	0.573809
569.282	0.570679
569.622	0.567530
569.962	0.564335
570.302	0.561151
570.643	0.558099
570.983	0.555169
571.323	0.552441
571.663	0.549774
572.003	0.547197
572.343	0.544592
572.683	0.541830
573.022	0.538900
573.362	0.535767
573.702	0.532544
574.042	0.529304
574.381	0.526237
574.721	0.523258
575.061	0.520444
575.400	0.517807
575.740	0.515208
576.079	0.512655
576.419	0.509935
576.758	0.507058
577.097	0.503976
577.437	0.500764
577.776	0.497451
578.115	0.494222
578.454	0.491157
578.794	0.488459
579.133	0.486122
579.472	0.484064
579.811	0.482199
580.150	0.480353
580.489	0.478404
580.828	0.476266
581.167	0.473971
581.505	0.471548
581.844	0.469129
582.183	0.466694
582.522	0.464309
582.860	0.462039
583.199	0.459868
583.538	0.457834
583.876	0.455860
584.215	0.453984
584.553	0.452158
584.891	0.450385
585.230	0.448587
585.568	0.446705
585.906	0.444645
586.245	0.442470
586.583	0.440277
586.921	0.438176
587.259	0.436269
587.597	0.434477
587.935	0.432734
588.273	0.430902
588.611	0.428901
588.949	0.426667
589.287	0.424254
589.625	0.421773
589.963	0.419367
590.300	0.417060
590.638	0.414918
590.976	0.412916
591.313	0.410934
591.651	0.408903
591.989	0.406909
592.326	0.404992
592.664	0.403169
593.001	0.401418
593.338	0.399815
593.676	0.398318
594.013	0.396829
594.350	0.395305
594.687	0.393857
595.025	0.392486
595.362	0.391152
595.699	0.389780
596.036	0.388462
596.373	0.387209
596.710	0.385908
597.047	0.384572
597.384	0.383212
597.720	0.381778
598.057	0.380338
598.394	0.378886
598.731	0.377439
599.067	0.375966
599.404	0.374424
599.741	0.372946
600.077	0.371534
600.414	0.370260
600.750	0.369104
601.087	0.368072
601.423	0.367086
601.759	0.366119
602.096	0.365092
