Date	2022年07月22日金曜日 01時57分26秒
Spectrometers	USB2+H05879
ダーク	使用
リファレンス	使用
積分時間[msec]	17
平均回数	10000
ｽﾑｰｼﾞﾝｸﾞ	0
Electrical Dark	USE
ピクセル数	2048
計測モード	吸光度
保存開始波長[nm]	190.664
保存終了波長[nm]	884.878
保存ﾋﾟｯﾁ波長[nm]	全波長

>>>>>>>>>> Data Start <<<<<<<<<<<<
190.664	0.000000
191.040	0.000000
191.415	0.000000
191.791	0.000000
192.166	0.000000
192.542	-0.188716
192.917	0.314629
193.293	0.000000
193.668	0.000000
194.044	0.000000
194.419	0.000000
194.794	0.000000
195.170	0.000000
195.545	0.000000
195.920	0.000000
196.296	0.000000
196.671	0.000000
197.046	0.000000
197.421	0.158719
197.796	0.000000
198.171	0.459434
198.546	0.000000
198.922	-0.087683
199.297	0.000000
199.672	0.000000
200.047	0.000000
200.422	0.000000
200.796	0.000000
201.171	0.000000
201.546	1.413167
201.921	0.000000
202.296	0.000000
202.671	0.000000
203.045	0.000000
203.420	0.421424
203.795	0.000000
204.170	0.000000
204.544	0.000000
204.919	0.000000
205.294	0.000000
205.668	0.000000
206.043	0.000000
206.417	0.762394
206.792	0.000000
207.166	0.000000
207.541	0.000000
207.915	0.000000
208.289	0.527596
208.664	0.000000
209.038	0.210922
209.412	0.000000
209.787	0.000000
210.161	-0.005562
210.535	0.000000
210.909	0.552074
211.284	-0.019732
211.658	0.000000
212.032	1.211928
212.406	0.357119
212.780	0.000000
213.154	0.007387
213.528	0.000000
213.902	0.230271
214.276	0.000000
214.650	0.000000
215.024	0.000000
215.398	0.096802
215.772	0.000000
216.145	0.000000
216.519	1.000085
216.893	0.000000
217.267	0.156004
217.640	0.000000
218.014	0.000000
218.388	0.100698
218.761	0.730204
219.135	0.309381
219.508	0.147173
219.882	0.000000
220.256	0.000000
220.629	0.000000
221.003	0.000000
221.376	0.000000
221.749	0.000000
222.123	0.000000
222.496	0.000000
222.869	0.000000
223.243	0.000000
223.616	0.051533
223.989	0.000000
224.362	0.000000
224.736	0.475704
225.109	0.948966
225.482	0.000000
225.855	0.051925
226.228	0.130129
226.601	0.000000
226.974	0.000000
227.347	0.000000
227.720	0.000000
228.093	0.000000
228.466	0.000000
228.839	-0.277397
229.212	0.539388
229.585	0.744167
229.957	0.709024
230.330	0.000000
230.703	0.000000
231.076	0.284999
231.448	0.741323
231.821	0.000000
232.194	-0.743217
232.566	0.000000
232.939	0.000000
233.311	0.000000
233.684	0.000000
234.056	0.000000
234.429	0.000000
234.801	0.000000
235.174	0.000000
235.546	0.000000
235.918	0.000000
236.291	0.364344
236.663	0.000000
237.035	0.437118
237.408	0.385980
237.780	0.091815
238.152	0.597491
238.524	0.000000
238.896	0.000000
239.268	0.000000
239.641	0.000000
240.013	0.043707
240.385	0.000000
240.757	0.000000
241.129	0.000000
241.500	0.000000
241.872	0.000000
242.244	0.621677
242.616	0.000000
242.988	0.000000
243.360	0.000000
243.731	0.000000
244.103	0.020506
244.475	0.000000
244.847	0.000000
245.218	0.000000
245.590	1.326454
245.961	-0.487080
246.333	0.777364
246.705	0.000000
247.076	0.165963
247.448	0.000000
247.819	0.000000
248.190	0.526021
248.562	0.000000
248.933	0.000000
249.305	0.000000
249.676	-0.565670
250.047	0.160189
250.418	0.000000
250.790	0.000000
251.161	0.000000
251.532	0.000000
251.903	0.000000
252.274	0.000000
252.645	2.635049
253.016	1.010074
253.387	0.568965
253.758	1.071947
254.129	0.000000
254.500	1.179972
254.871	0.258510
255.242	0.569628
255.613	0.000000
255.984	0.144933
256.355	0.000000
256.725	0.000000
257.096	0.000000
257.467	0.747263
257.838	0.346356
258.208	0.000000
258.579	0.143337
258.949	0.000000
259.320	0.000000
259.690	0.000000
260.061	-0.081395
260.431	0.297551
260.802	0.587695
261.172	0.000000
261.543	0.000000
261.913	0.574154
262.283	-0.118913
262.654	0.000000
263.024	-0.443672
263.394	0.000000
263.764	0.523364
264.135	0.000000
264.505	-0.025489
264.875	-0.139968
265.245	0.159148
265.615	0.223089
265.985	0.000000
266.355	0.000000
266.725	-1.270346
267.095	0.000000
267.465	0.262542
267.835	1.904575
268.205	1.165887
268.575	0.000000
268.944	0.000000
269.314	0.000000
269.684	0.000000
270.054	0.000000
270.423	0.000000
270.793	-0.267495
271.163	0.840140
271.532	0.000000
271.902	0.000000
272.271	-0.420445
272.641	1.308020
273.010	0.000000
273.380	1.531021
273.749	0.089654
274.119	0.000000
274.488	1.208412
274.857	0.000000
275.227	0.000000
275.596	0.000000
275.965	0.000000
276.335	0.000000
276.704	0.000000
277.073	0.000000
277.442	0.596304
277.811	0.607219
278.180	0.000000
278.549	1.250416
278.918	0.000000
279.287	0.000000
279.656	0.238233
280.025	0.127849
280.394	0.000000
280.763	0.905971
281.132	1.406716
281.501	0.000000
281.869	0.000000
282.238	0.000000
282.607	0.000000
282.976	0.545737
283.344	0.000000
283.713	0.000000
284.081	0.000000
284.450	0.000000
284.819	0.000000
285.187	0.000000
285.556	0.000000
285.924	0.499702
286.292	-1.331375
286.661	0.236342
287.029	0.705092
287.398	0.494213
287.766	0.000000
288.134	0.000000
288.502	0.000000
288.871	0.150530
289.239	0.000000
289.607	0.245662
289.975	0.291279
290.343	0.000000
290.711	0.000000
291.079	1.245416
291.447	1.057421
291.815	0.205434
292.183	-0.351547
292.551	0.000000
292.919	-0.917998
293.287	0.378165
293.655	0.505468
294.022	0.000000
294.390	0.000000
294.758	0.000000
295.126	0.436598
295.493	0.777007
295.861	0.100990
296.229	0.571369
296.596	0.520087
296.964	0.000000
297.331	0.000000
297.699	0.556437
298.066	0.000000
298.434	0.279114
298.801	0.878051
299.168	0.802111
299.536	0.000000
299.903	0.473741
300.270	0.000000
300.638	0.000000
301.005	0.957949
301.372	-0.387473
301.739	-0.066540
302.106	0.000000
302.473	0.000000
302.840	0.000000
303.207	0.530815
303.574	-0.059291
303.941	0.000000
304.308	0.566360
304.675	0.119625
305.042	0.548854
305.409	0.000000
305.776	-0.221180
306.143	0.285593
306.509	1.735729
306.876	0.404405
307.243	0.787468
307.610	0.579521
307.976	1.166324
308.343	0.399401
308.709	0.929497
309.076	0.924445
309.442	0.483435
309.809	0.880132
310.175	1.111713
310.542	1.343818
310.908	0.993736
311.275	1.205219
311.641	0.791078
312.007	1.343389
312.373	1.185589
312.740	1.170140
313.106	1.138953
313.472	1.167683
313.838	1.350005
314.204	1.349756
314.570	1.145933
314.936	1.145024
315.302	0.000000
315.668	1.316596
316.034	1.585912
316.400	1.361771
316.766	1.303036
317.132	2.920670
317.498	1.372884
317.864	1.611169
318.230	1.888316
318.595	2.020038
318.961	2.172224
319.327	1.284812
319.692	1.725152
320.058	1.693091
320.424	1.633388
320.789	1.531416
321.155	1.543654
321.520	1.937218
321.886	1.618463
322.251	1.845624
322.616	1.783249
322.982	2.200605
323.347	1.763156
323.712	1.604026
324.078	2.404666
324.443	1.792270
324.808	2.303135
325.173	1.956460
325.539	1.742561
325.904	1.858632
326.269	2.001298
326.634	1.942784
326.999	2.210467
327.364	1.796603
327.729	2.000885
328.094	1.839653
328.459	2.087845
328.823	1.868051
329.188	1.670730
329.553	1.905744
329.918	2.147441
330.283	2.127140
330.647	1.940763
331.012	1.865520
331.377	2.149149
331.741	2.187887
332.106	2.066632
332.470	1.861054
332.835	1.975349
333.199	1.966679
333.564	2.015031
333.928	1.792476
334.293	1.807214
334.657	2.049602
335.021	1.931853
335.386	1.869989
335.750	1.986181
336.114	2.141495
336.478	2.103674
336.843	1.935491
337.207	2.047262
337.571	2.029827
337.935	2.167196
338.299	2.019201
338.663	2.096905
339.027	2.067599
339.391	2.079327
339.755	1.864470
340.119	1.986649
340.483	2.054646
340.846	2.098513
341.210	1.919651
341.574	1.997439
341.938	1.845594
342.301	1.976570
342.665	2.158591
343.029	2.143172
343.392	1.891121
343.756	2.057990
344.119	2.020456
344.483	2.177709
344.846	2.080724
345.210	1.982381
345.573	1.931182
345.937	2.115062
346.300	2.192160
346.663	2.029863
347.027	2.024671
347.390	1.993756
347.753	2.070060
348.116	1.995698
348.479	2.070126
348.843	2.007783
349.206	2.041507
349.569	1.867454
349.932	2.112387
350.295	2.092858
350.658	2.037300
351.021	1.894402
351.383	1.923849
351.746	2.089061
352.109	2.077375
352.472	1.930055
352.835	1.984247
353.197	2.100377
353.560	2.023279
353.923	2.049741
354.285	2.102187
354.648	1.949442
355.011	2.121595
355.373	2.020749
355.736	1.985754
356.098	2.011553
356.461	1.983118
356.823	2.246642
357.185	2.117623
357.548	1.970117
357.910	2.042484
358.272	2.072118
358.635	2.062197
358.997	2.060372
359.359	1.964238
359.721	2.097200
360.083	2.044972
360.445	2.117159
360.807	2.019175
361.169	1.977960
361.531	2.042838
361.893	2.013236
362.255	1.965962
362.617	2.001305
362.979	2.079204
363.341	2.113039
363.703	1.952514
364.064	1.983597
364.426	2.022447
364.788	1.927105
365.149	1.905159
365.511	2.023058
365.873	2.079941
366.234	2.051667
366.596	2.059311
366.957	2.100713
367.319	1.972568
367.680	1.974250
368.042	1.953572
368.403	1.983693
368.764	2.007524
369.126	2.022454
369.487	2.001911
369.848	2.023863
370.209	2.030525
370.570	1.962310
370.931	2.006490
371.293	2.120720
371.654	2.015492
372.015	2.063426
372.376	1.985427
372.737	1.948424
373.098	2.077111
373.458	2.066087
373.819	2.000406
374.180	1.992940
374.541	2.160318
374.902	2.114422
375.263	1.967805
375.623	1.887193
375.984	1.976351
376.345	2.030677
376.705	2.047810
377.066	2.048195
377.426	2.137284
377.787	2.121428
378.147	1.981815
378.508	1.978573
378.868	2.139481
379.228	2.084334
379.589	2.096565
379.949	2.023555
380.309	2.158844
380.670	2.105953
381.030	1.991553
381.390	2.199153
381.750	2.104453
382.110	2.099280
382.470	2.104613
382.830	2.093008
383.190	2.005865
383.550	2.090595
383.910	2.009273
384.270	2.079873
384.630	2.060137
384.990	1.997852
385.350	1.999075
385.709	2.074414
386.069	2.119547
386.429	2.067071
386.788	2.080556
387.148	2.074034
387.508	2.081094
387.867	2.076363
388.227	2.096207
388.586	2.025894
388.946	1.902436
389.305	2.051102
389.665	2.096835
390.024	2.239871
390.383	2.193389
390.743	1.994860
391.102	2.153380
391.461	1.972340
391.820	2.097958
392.179	1.998754
392.539	2.071545
392.898	2.044866
393.257	2.085333
393.616	2.016246
393.975	1.954236
394.334	1.987028
394.693	1.997865
395.051	2.120219
395.410	2.234274
395.769	2.073428
396.128	2.096019
396.487	1.991524
396.845	2.076605
397.204	2.057768
397.563	2.178188
397.921	2.040313
398.280	2.019366
398.638	2.100554
398.997	2.000599
399.355	2.088967
399.714	2.049417
400.072	2.156121
400.431	2.014808
400.789	2.200517
401.147	2.001615
401.506	1.995281
401.864	1.984469
402.222	2.164472
402.580	2.111768
402.938	1.947946
403.297	1.979572
403.655	2.152670
404.013	2.010970
404.371	2.028986
404.729	2.204347
405.087	2.040742
405.444	2.146794
405.802	2.089553
406.160	2.099378
406.518	2.051000
406.876	2.017828
407.233	2.088445
407.591	2.173634
407.949	2.225478
408.306	1.967433
408.664	2.069062
409.022	2.112956
409.379	2.101124
409.737	2.039853
410.094	2.064107
410.451	2.085839
410.809	2.076635
411.166	1.955502
411.523	1.994892
411.881	1.991757
412.238	2.054992
412.595	2.074846
412.952	2.091024
413.310	1.966945
413.667	2.169021
414.024	2.086442
414.381	2.033991
414.738	2.044559
415.095	2.110177
415.452	2.000235
415.809	2.049639
416.165	1.993220
416.522	2.017487
416.879	2.088675
417.236	2.174291
417.593	2.103010
417.949	2.187611
418.306	2.175368
418.663	2.044448
419.019	2.004300
419.376	1.998067
419.732	2.104180
420.089	2.049775
420.445	2.047469
420.802	2.048969
421.158	2.147942
421.514	2.057646
421.871	2.013352
422.227	2.039640
422.583	1.998085
422.939	1.992985
423.295	1.969556
423.652	2.156540
424.008	2.070858
424.364	1.956582
424.720	1.974479
425.076	2.018369
425.432	2.075232
425.788	2.052884
426.143	2.034559
426.499	1.952655
426.855	1.995973
427.211	2.032066
427.567	2.063682
427.922	1.994549
428.278	2.146035
428.634	2.030728
428.989	2.132715
429.345	2.015254
429.700	2.121547
430.056	1.970424
430.411	1.987397
430.767	2.074882
431.122	2.059905
431.478	2.020315
431.833	2.065208
432.188	2.032936
432.543	1.997509
432.899	2.117485
433.254	1.960609
433.609	2.011198
433.964	2.061318
434.319	2.116528
434.674	2.077529
435.029	2.067570
435.384	1.978992
435.739	2.010032
436.094	2.057943
436.449	2.009939
436.804	2.093374
437.158	1.962962
437.513	2.071343
437.868	2.045029
438.223	1.971735
438.577	1.969707
438.932	1.912372
439.287	1.993860
439.641	1.993588
439.996	2.010255
440.350	1.959647
440.704	1.991445
441.059	2.048071
441.413	2.055274
441.768	1.859628
442.122	2.054176
442.476	1.985524
442.830	1.930946
443.185	1.958058
443.539	1.962872
443.893	1.950080
444.247	2.024456
444.601	1.938835
444.955	1.945253
445.309	1.980637
445.663	1.886962
446.017	1.902697
446.371	1.935385
446.724	1.954857
447.078	1.875717
447.432	1.866063
447.786	1.979779
448.139	1.920785
448.493	1.986783
448.847	1.891901
449.200	1.849575
449.554	1.854263
449.907	1.928106
450.261	1.917492
450.614	1.963118
450.968	1.857285
451.321	1.937309
451.674	1.866934
452.027	1.881870
452.381	1.879063
452.734	1.904784
453.087	1.949828
453.440	1.880750
453.793	1.907685
454.146	1.991220
454.499	1.893654
454.852	1.883714
455.205	1.845326
455.558	1.804398
455.911	1.904991
456.264	1.889242
456.617	1.849481
456.970	1.864020
457.322	1.816924
457.675	1.847227
458.028	1.832685
458.380	1.853549
458.733	1.922257
459.086	1.870745
459.438	1.900079
459.791	1.841087
460.143	1.830984
460.496	1.797024
460.848	1.808162
461.200	1.834959
461.553	1.819143
461.905	1.844488
462.257	1.894544
462.609	1.841518
462.961	1.785040
463.314	1.748230
463.666	1.766834
464.018	1.803839
464.370	1.814929
464.722	1.792872
465.074	1.746754
465.426	1.763260
465.777	1.734960
466.129	1.745162
466.481	1.713221
466.833	1.730841
467.184	1.812071
467.536	1.748822
467.888	1.798988
468.239	1.754629
468.591	1.748438
468.943	1.806484
469.294	1.691829
469.646	1.764472
469.997	1.708258
470.348	1.742004
470.700	1.631547
471.051	1.677562
471.402	1.755943
471.754	1.749100
472.105	1.722802
472.456	1.738250
472.807	1.736798
473.158	1.693603
473.509	1.671702
473.860	1.731480
474.211	1.701738
474.562	1.728427
474.913	1.717095
475.264	1.704210
475.615	1.700359
475.966	1.701945
476.316	1.702596
476.667	1.646286
477.018	1.686063
477.368	1.648031
477.719	1.673520
478.070	1.683742
478.420	1.634195
478.771	1.685003
479.121	1.648584
479.472	1.652532
479.822	1.651710
480.172	1.623349
480.523	1.626604
480.873	1.608572
481.223	1.625988
481.573	1.633237
481.924	1.611940
482.274	1.632052
482.624	1.637390
482.974	1.615208
483.324	1.636607
483.674	1.578560
484.024	1.597368
484.374	1.655231
484.724	1.609122
485.073	1.596847
485.423	1.600382
485.773	1.594685
486.123	1.578301
486.472	1.581465
486.822	1.586489
487.172	1.595031
487.521	1.578872
487.871	1.552263
488.220	1.560157
488.570	1.604339
488.919	1.583782
489.268	1.588025
489.618	1.568137
489.967	1.577553
490.316	1.573795
490.666	1.522845
491.015	1.569875
491.364	1.511210
491.713	1.544966
492.062	1.540848
492.411	1.553020
492.760	1.558369
493.109	1.561567
493.458	1.536117
493.807	1.539570
494.156	1.549440
494.505	1.505095
494.853	1.505893
495.202	1.520059
495.551	1.528931
495.900	1.514094
496.248	1.498569
496.597	1.496134
496.945	1.509670
497.294	1.493078
497.642	1.497467
497.991	1.473906
498.339	1.485978
498.688	1.480189
499.036	1.486616
499.384	1.486421
499.732	1.471811
500.081	1.479765
500.429	1.461487
500.777	1.492900
501.125	1.464558
501.473	1.470380
501.821	1.468778
502.169	1.451318
502.517	1.454093
502.865	1.442463
503.213	1.443762
503.561	1.449968
503.908	1.448766
504.256	1.427798
504.604	1.414926
504.952	1.415304
505.299	1.414550
505.647	1.420610
505.994	1.450436
506.342	1.425187
506.689	1.425995
507.037	1.397122
507.384	1.410294
507.732	1.395008
508.079	1.399499
508.426	1.402732
508.774	1.376094
509.121	1.390180
509.468	1.393286
509.815	1.383907
510.162	1.386164
510.509	1.383510
510.856	1.392686
511.203	1.376222
511.550	1.380410
511.897	1.378298
512.244	1.363774
512.591	1.371515
512.938	1.348434
513.284	1.361396
513.631	1.361801
513.978	1.390769
514.324	1.352732
514.671	1.364220
515.018	1.336787
515.364	1.339227
515.711	1.360420
516.057	1.368276
516.403	1.344986
516.750	1.331230
517.096	1.346116
517.443	1.330321
517.789	1.350191
518.135	1.324336
518.481	1.348690
518.827	1.357683
519.173	1.326227
519.519	1.350653
519.865	1.332142
520.211	1.322427
520.557	1.309975
520.903	1.302865
521.249	1.320548
521.595	1.317152
521.941	1.323276
522.287	1.334608
522.632	1.300882
522.978	1.311395
523.324	1.311097
523.669	1.296287
524.015	1.296878
524.360	1.300446
524.706	1.298268
525.051	1.296979
525.397	1.281389
525.742	1.282399
526.087	1.294460
526.433	1.277207
526.778	1.275475
527.123	1.281880
527.468	1.261456
527.813	1.267469
528.158	1.283498
528.504	1.277765
528.849	1.284704
529.193	1.269601
529.538	1.256789
529.883	1.254100
530.228	1.247508
530.573	1.266283
530.918	1.261917
531.263	1.241705
531.607	1.236038
531.952	1.250064
532.296	1.230986
532.641	1.246323
532.986	1.235361
533.330	1.244234
533.675	1.252879
534.019	1.229879
534.363	1.222111
534.708	1.217420
535.052	1.222020
535.396	1.224032
535.741	1.228134
536.085	1.208901
536.429	1.219833
536.773	1.202238
537.117	1.225632
537.461	1.199599
537.805	1.215141
538.149	1.202331
538.493	1.208132
538.837	1.190086
539.181	1.184254
539.524	1.183925
539.868	1.178178
540.212	1.188024
540.556	1.181447
540.899	1.172366
541.243	1.170294
541.586	1.157573
541.930	1.181482
542.273	1.186445
542.617	1.161500
542.960	1.155295
543.304	1.160163
543.647	1.144862
543.990	1.140816
544.333	1.147559
544.677	1.130119
545.020	1.154439
545.363	1.138520
545.706	1.136040
546.049	1.135946
546.392	1.117867
546.735	1.114154
547.078	1.115484
547.421	1.109190
547.764	1.117795
548.106	1.096076
548.449	1.116216
548.792	1.096530
549.135	1.092060
549.477	1.099562
549.820	1.089701
550.162	1.067765
550.505	1.081020
550.847	1.071009
551.190	1.066675
551.532	1.060204
551.875	1.047563
552.217	1.047587
552.559	1.051045
552.901	1.051739
553.244	1.042757
553.586	1.043173
553.928	1.035054
554.270	1.027934
554.612	1.023276
554.954	1.028249
555.296	1.016171
555.638	1.016349
555.980	1.000786
556.322	1.001540
556.663	0.997419
557.005	0.996137
557.347	0.978022
557.689	0.982769
558.030	0.966527
558.372	0.966040
558.713	0.963020
559.055	0.959241
559.396	0.951552
559.738	0.950636
560.079	0.944246
560.421	0.945225
560.762	0.932485
561.103	0.936433
561.444	0.927722
561.786	0.924794
562.127	0.915809
562.468	0.912004
562.809	0.904036
563.150	0.904923
563.491	0.894596
563.832	0.888442
564.173	0.875657
564.514	0.874746
564.855	0.870967
565.195	0.867312
565.536	0.860277
565.877	0.853042
566.218	0.853220
566.558	0.848666
566.899	0.848076
567.239	0.833072
567.580	0.829641
567.920	0.829321
568.261	0.820043
568.601	0.815466
568.941	0.817680
569.282	0.810645
569.622	0.803222
569.962	0.795566
570.302	0.793603
570.643	0.784900
570.983	0.782384
571.323	0.774094
571.663	0.771435
572.003	0.760532
572.343	0.747732
572.683	0.735594
573.022	0.717445
573.362	0.697035
573.702	0.667769
574.042	0.650844
574.381	0.637878
574.721	0.634297
575.061	0.630557
575.400	0.628029
575.740	0.626716
576.079	0.618100
576.419	0.593688
576.758	0.565268
577.097	0.539273
577.437	0.524721
577.776	0.518740
578.115	0.515831
578.454	0.515308
578.794	0.529280
579.133	0.538854
579.472	0.544947
579.811	0.533295
580.150	0.500666
580.489	0.463732
580.828	0.432469
581.167	0.411214
581.505	0.396523
581.844	0.396172
582.183	0.410964
582.522	0.446240
582.860	0.488782
583.199	0.526068
583.538	0.542889
583.876	0.544843
584.215	0.529198
584.553	0.510553
584.891	0.495827
585.230	0.492075
585.568	0.494466
585.906	0.500222
586.245	0.507666
586.583	0.516047
586.921	0.521395
587.259	0.522369
587.597	0.523488
587.935	0.531935
588.273	0.549689
588.611	0.570766
588.949	0.587604
589.287	0.590461
589.625	0.588793
589.963	0.589107
590.300	0.582135
590.638	0.583428
590.976	0.581378
591.313	0.576286
591.651	0.574014
591.989	0.569149
592.326	0.564455
592.664	0.562629
593.001	0.556779
593.338	0.549007
593.676	0.546285
594.013	0.550935
594.350	0.555765
594.687	0.550453
595.025	0.547611
595.362	0.544526
595.699	0.544615
596.036	0.546473
596.373	0.544945
596.710	0.544359
597.047	0.539431
597.384	0.535809
597.720	0.534588
598.057	0.532946
598.394	0.532608
598.731	0.526581
599.067	0.524997
599.404	0.521486
599.741	0.523460
600.077	0.523627
600.414	0.518843
600.750	0.522707
601.087	0.516663
601.423	0.516586
601.759	0.514902
602.096	0.515091
602.432	0.511318
602.768	0.507742
603.104	0.503387
603.440	0.505936
603.776	0.506553
604.112	0.503397
604.448	0.502218
604.784	0.502070
