Date	2023年01月06日金曜日 11時57分26秒
Spectrometers	USB2+H05879
ダーク	使用
リファレンス	使用
積分時間[msec]	2
平均回数	10000
ｽﾑｰｼﾞﾝｸﾞ	4
Electrical Dark	USE
ピクセル数	2048
計測モード	吸光度
保存開始波長[nm]	190.664
保存終了波長[nm]	884.878
保存ﾋﾟｯﾁ波長[nm]	全波長

>>>>>>>>>> Data Start <<<<<<<<<<<<
190.664	1.112447
191.040	0.640937
191.415	0.640937
191.791	0.000000
192.166	0.000000
192.542	0.000000
192.917	0.000000
193.293	0.000000
193.668	0.000000
194.044	0.000000
194.419	0.000000
194.794	0.000000
195.170	0.000000
195.545	0.000000
195.920	0.000000
196.296	0.000000
196.671	0.000000
197.046	0.751817
197.421	1.720005
197.796	0.540038
198.171	0.234512
198.546	0.234124
198.922	0.201444
199.297	0.354728
199.672	1.144587
200.047	0.000000
200.422	0.000000
200.796	0.000000
201.171	0.000000
201.546	0.000000
201.921	0.000000
202.296	0.000000
202.671	0.000000
203.045	0.000000
203.420	0.000000
203.795	0.000000
204.170	0.000000
204.544	0.000000
204.919	0.000000
205.294	0.037048
205.668	0.364853
206.043	0.701197
206.417	0.000000
206.792	0.000000
207.166	0.000000
207.541	0.000000
207.915	0.000000
208.289	0.000000
208.664	0.000000
209.038	0.000000
209.412	0.000000
209.787	0.000000
210.161	0.000000
210.535	0.000000
210.909	0.000000
211.284	0.847075
211.658	0.292750
212.032	0.188051
212.406	0.200968
212.780	0.191175
213.154	0.206923
213.528	0.223489
213.902	0.292880
214.276	0.333464
214.650	0.427211
215.024	0.390280
215.398	0.411756
215.772	0.460358
216.145	0.468087
216.519	0.388636
216.893	0.428773
217.267	0.378712
217.640	0.406845
218.014	0.334160
218.388	0.753874
218.761	0.674744
219.135	0.603722
219.508	0.752191
219.882	0.989093
220.256	1.444245
220.629	1.074116
221.003	0.664584
221.376	0.652322
221.749	0.465595
222.123	0.623855
222.496	1.645148
222.869	0.000000
223.243	0.000000
223.616	1.419710
223.989	1.089776
224.362	0.538387
224.736	0.797312
225.109	0.708530
225.482	1.497915
225.855	0.440096
226.228	0.255332
226.601	0.412860
226.974	1.695955
227.347	0.000000
227.720	0.000000
228.093	0.000000
228.466	0.000000
228.839	0.000000
229.212	0.000000
229.585	0.000000
229.957	1.075853
230.330	0.642014
230.703	0.679841
231.076	1.002471
231.448	1.309633
231.821	0.599809
232.194	0.544416
232.566	0.635675
232.939	0.720638
233.311	0.531178
233.684	0.483944
234.056	0.433604
234.429	0.416450
234.801	0.442578
235.174	0.498451
235.546	0.470098
235.918	0.629830
236.291	1.080758
236.663	1.480717
237.035	0.000000
237.408	0.000000
237.780	0.000000
238.152	0.000000
238.524	0.000000
238.896	0.000000
239.268	0.000000
239.641	1.081444
240.013	0.000000
240.385	0.000000
240.757	0.522823
241.129	0.000000
241.500	0.668811
241.872	0.497319
242.244	0.626341
242.616	1.287804
242.988	0.000000
243.360	0.000000
243.731	0.000000
244.103	0.000000
244.475	0.000000
244.847	0.000000
245.218	0.000000
245.590	0.000000
245.961	0.000000
246.333	0.000000
246.705	0.000000
247.076	0.000000
247.448	0.000000
247.819	0.000000
248.190	0.000000
248.562	0.000000
248.933	1.495367
249.305	0.775516
249.676	0.416294
250.047	0.538257
250.418	0.389090
250.790	0.333211
251.161	0.346830
251.532	0.578606
251.903	0.984965
252.274	0.000000
252.645	0.000000
253.016	0.000000
253.387	0.000000
253.758	0.000000
254.129	0.000000
254.500	1.417709
254.871	0.650418
255.242	0.413605
255.613	0.554156
255.984	0.455853
256.355	0.495545
256.725	0.571628
257.096	0.736409
257.467	0.812750
257.838	0.800246
258.208	0.645151
258.579	0.842469
258.949	0.502952
259.320	0.454215
259.690	0.462435
260.061	0.406544
260.431	0.390516
260.802	0.340028
261.172	0.452965
261.543	0.584795
261.913	0.666968
262.283	0.965019
262.654	0.000000
263.024	0.000000
263.394	0.000000
263.764	0.000000
264.135	0.000000
264.505	0.830838
264.875	0.782401
265.245	0.617271
265.615	0.627323
265.985	0.307789
266.355	0.324338
266.725	0.356703
267.095	0.369665
267.465	0.383339
267.835	0.395071
268.205	0.367069
268.575	0.436888
268.944	0.591318
269.314	0.992144
269.684	0.993913
270.054	0.999186
270.423	0.785277
270.793	0.864474
271.163	0.000000
271.532	0.000000
271.902	0.000000
272.271	0.000000
272.641	0.000000
273.010	0.000000
273.380	0.000000
273.749	0.000000
274.119	1.335162
274.488	0.699203
274.857	0.576187
275.227	0.523631
275.596	0.492153
275.965	0.432913
276.335	0.442424
276.704	0.436028
277.073	0.394745
277.442	0.443273
277.811	0.521808
278.180	0.548019
278.549	0.540899
278.918	0.501108
279.287	0.658851
279.656	1.025944
280.025	0.000000
280.394	0.000000
280.763	0.000000
281.132	0.000000
281.501	0.000000
281.869	0.000000
282.238	0.000000
282.607	1.375633
282.976	1.258351
283.344	0.788088
283.713	1.086569
284.081	1.484571
284.450	1.312724
284.819	1.049993
285.187	0.000000
285.556	0.000000
285.924	0.000000
286.292	1.161269
286.661	0.953750
287.029	0.000000
287.398	0.997071
287.766	0.899620
288.134	0.780370
288.502	0.581559
288.871	0.524123
289.239	0.594348
289.607	0.640840
289.975	0.814116
290.343	0.616976
290.711	0.700046
291.079	1.885705
291.447	1.150063
291.815	1.164447
292.183	0.000000
292.551	1.322915
292.919	1.434785
293.287	1.345464
293.655	0.000000
294.022	1.328573
294.390	1.096832
294.758	0.000000
295.126	0.000000
295.493	0.000000
295.861	0.000000
296.229	0.000000
296.596	0.000000
296.964	0.955542
297.331	0.000000
297.699	0.000000
298.066	0.968792
298.434	0.848536
298.801	0.648843
299.168	0.658027
299.536	0.741463
299.903	0.797695
300.270	1.060833
300.638	0.691571
301.005	0.643430
301.372	0.687833
301.739	0.667297
302.106	0.666107
302.473	0.603535
302.840	0.570804
303.207	0.553081
303.574	0.461322
303.941	0.519009
304.308	0.538983
304.675	0.564610
305.042	0.567878
305.409	0.599934
305.776	0.744101
306.143	0.809643
306.509	0.926466
306.876	1.184786
307.243	1.047115
307.610	1.071954
307.976	1.159099
308.343	1.306331
308.709	0.000000
309.076	1.397823
309.442	1.699686
309.809	1.329771
310.175	1.949623
310.542	0.000000
310.908	2.078623
311.275	1.644490
311.641	1.672001
312.007	1.803043
312.373	2.848211
312.740	2.100109
313.106	0.000000
313.472	2.032698
313.838	1.921576
314.204	2.068836
314.570	2.448670
314.936	2.190260
315.302	2.313780
315.668	2.331517
316.034	2.164385
316.400	2.628248
316.766	0.000000
317.132	0.000000
317.498	0.000000
317.864	0.000000
318.230	0.000000
318.595	2.489099
318.961	2.163261
319.327	2.254584
319.692	2.229350
320.058	1.924995
320.424	2.125080
320.789	2.003147
321.155	1.992614
321.520	2.326661
321.886	2.303725
322.251	2.621081
322.616	2.701541
322.982	2.747288
323.347	0.000000
323.712	0.000000
324.078	2.867605
324.443	2.603492
324.808	2.306681
325.173	2.232858
325.539	2.298522
325.904	2.226162
326.269	2.091709
326.634	2.063445
326.999	2.151144
327.364	2.220055
327.729	2.244694
328.094	2.377942
328.459	2.412128
328.823	2.259230
329.188	2.293565
329.553	2.345759
329.918	2.307964
330.283	2.314862
330.647	2.336870
331.012	2.532333
331.377	2.406829
331.741	2.446048
332.106	2.516327
332.470	2.859478
332.835	3.284780
333.199	3.415921
333.564	2.709694
333.928	2.687070
334.293	2.494001
334.657	2.512941
335.021	2.556691
335.386	2.702850
335.750	2.520587
336.114	2.347563
336.478	2.341765
336.843	2.426360
337.207	2.463533
337.571	2.442508
337.935	2.486352
338.299	2.545708
338.663	2.410584
339.027	2.391894
339.391	2.484131
339.755	2.550462
340.119	2.537726
340.483	2.631124
340.846	2.651046
341.210	2.625966
341.574	2.450211
341.938	2.537742
342.301	2.607632
342.665	2.577201
343.029	2.576351
343.392	2.577773
343.756	2.468228
344.119	2.522540
344.483	2.476460
344.846	2.551594
345.210	2.537128
345.573	2.471097
345.937	2.522630
346.300	2.518664
346.663	2.408266
347.027	2.479693
347.390	2.447836
347.753	2.471300
348.116	2.432164
348.479	2.413635
348.843	2.427873
349.206	2.421368
349.569	2.479981
349.932	2.480201
350.295	2.418439
350.658	2.431048
351.021	2.449636
351.383	2.415631
351.746	2.409457
352.109	2.363540
352.472	2.435959
352.835	2.383172
353.197	2.480678
353.560	2.457789
353.923	2.444786
354.285	2.430420
354.648	2.531659
355.011	2.607847
355.373	2.633990
355.736	2.510440
356.098	2.530596
356.461	2.426220
356.823	2.499726
357.185	2.486952
357.548	2.495644
357.910	2.466829
358.272	2.402125
358.635	2.489774
358.997	2.486708
359.359	2.434448
359.721	2.560729
360.083	2.555181
360.445	2.525403
360.807	2.503393
361.169	2.445810
361.531	2.445378
361.893	2.406782
362.255	2.379034
362.617	2.381340
362.979	2.318389
363.341	2.333748
363.703	2.362170
364.064	2.370006
364.426	2.457154
364.788	2.510235
365.149	2.476080
365.511	2.494822
365.873	2.483490
366.234	2.503042
366.596	2.510080
366.957	2.550860
367.319	2.520467
367.680	2.475156
368.042	2.455646
368.403	2.514525
368.764	2.488468
369.126	2.471813
369.487	2.440441
369.848	2.410447
370.209	2.405284
370.570	2.401261
370.931	2.450326
371.293	2.429361
371.654	2.457580
372.015	2.569534
372.376	2.610110
372.737	2.689221
373.098	2.703144
373.458	2.713605
373.819	2.846478
374.180	2.714976
374.541	2.650024
374.902	2.546968
375.263	2.499661
375.623	2.524036
375.984	2.491573
376.345	2.514098
376.705	2.535964
377.066	2.539473
377.426	2.605910
377.787	2.702598
378.147	2.719990
378.508	2.824744
378.868	2.899935
379.228	2.914083
379.589	2.748632
379.949	2.621942
380.309	2.545033
380.670	2.497893
381.030	2.516010
381.390	2.541654
381.750	2.477225
382.110	2.450850
382.470	2.486519
382.830	2.520916
383.190	2.507117
383.550	2.475771
383.910	2.499935
384.270	2.490694
384.630	2.467175
384.990	2.468314
385.350	2.516549
385.709	2.535277
386.069	2.546509
386.429	2.615363
386.788	2.770662
387.148	2.904021
387.508	2.945267
387.867	3.068746
388.227	3.123422
388.586	3.126343
388.946	2.869020
389.305	2.860259
389.665	2.908242
390.024	2.730245
390.383	2.672255
390.743	2.618618
391.102	2.640742
391.461	2.693945
391.820	2.627723
392.179	2.664278
392.539	2.676068
392.898	2.608366
393.257	2.603615
393.616	2.582030
393.975	2.639301
394.334	2.576380
394.693	2.504836
395.051	2.529109
395.410	2.458362
395.769	2.498747
396.128	2.470396
396.487	2.477983
396.845	2.439627
397.204	2.420938
397.563	2.419499
397.921	2.479510
398.280	2.458705
398.638	2.547226
398.997	2.479069
399.355	2.603204
399.714	2.723258
400.072	2.732250
400.431	2.708198
400.789	2.717504
401.147	2.576194
401.506	2.586943
401.864	2.578499
402.222	2.599427
402.580	2.521726
402.938	2.458771
403.297	2.496713
403.655	2.507747
404.013	2.521195
404.371	2.610244
404.729	2.588022
405.087	2.564062
405.444	2.519763
405.802	2.485979
406.160	2.468890
406.518	2.446763
406.876	2.491338
407.233	2.465166
407.591	2.462366
407.949	2.437087
408.306	2.438917
408.664	2.539668
409.022	2.589578
409.379	2.662752
409.737	2.643467
410.094	2.561514
410.451	2.575615
410.809	2.580103
411.166	2.707281
411.523	2.804222
411.881	2.704701
412.238	2.584514
412.595	2.583752
412.952	2.645699
413.310	2.641608
413.667	2.696656
414.024	2.662685
414.381	2.589035
414.738	2.510088
415.095	2.500609
415.452	2.579204
415.809	2.528511
416.165	2.452958
416.522	2.448077
416.879	2.426333
417.236	2.415937
417.593	2.444680
417.949	2.447601
418.306	2.406441
418.663	2.412857
419.019	2.443697
419.376	2.447381
419.732	2.450686
420.089	2.394091
420.445	2.375269
420.802	2.374303
421.158	2.384084
421.514	2.414935
421.871	2.391111
422.227	2.384907
422.583	2.437037
422.939	2.435982
423.295	2.451263
423.652	2.441845
424.008	2.380301
424.364	2.421542
424.720	2.400595
425.076	2.390034
425.432	2.360888
425.788	2.312146
426.143	2.309783
426.499	2.313996
426.855	2.345783
427.211	2.379782
427.567	2.312232
427.922	2.343596
428.278	2.336624
428.634	2.354116
428.989	2.337074
429.345	2.351620
429.700	2.337079
430.056	2.335695
430.411	2.343410
430.767	2.329094
431.122	2.286706
431.478	2.339802
431.833	2.353427
432.188	2.368368
432.543	2.329321
432.899	2.383031
433.254	2.384285
433.609	2.375441
433.964	2.385054
434.319	2.422077
434.674	2.389458
435.029	2.358658
435.384	2.382479
435.739	2.382035
436.094	2.325890
436.449	2.303284
436.804	2.253714
437.158	2.285275
437.513	2.270624
437.868	2.244317
438.223	2.266202
438.577	2.264749
438.932	2.261067
439.287	2.287598
439.641	2.283913
439.996	2.334710
440.350	2.343853
440.704	2.365666
441.059	2.346547
441.413	2.296628
441.768	2.265768
442.122	2.299320
442.476	2.284990
442.830	2.272321
443.185	2.258639
443.539	2.242822
443.893	2.199308
444.247	2.207315
444.601	2.197243
444.955	2.180279
445.309	2.133550
445.663	2.125414
446.017	2.119919
446.371	2.110007
446.724	2.099028
447.078	2.109217
447.432	2.108443
447.786	2.100759
448.139	2.126571
448.493	2.151144
448.847	2.136591
449.200	2.107858
449.554	2.102402
449.907	2.085634
450.261	2.077909
450.614	2.050628
450.968	2.080668
451.321	2.050457
451.674	2.015100
452.027	1.999414
452.381	2.033038
452.734	2.017899
453.087	2.028980
453.440	2.047272
453.793	2.071185
454.146	2.063439
454.499	2.069897
454.852	2.112064
455.205	2.121525
455.558	2.101097
455.911	2.099433
456.264	2.088212
456.617	2.073659
456.970	2.061800
457.322	2.041613
457.675	2.047609
458.028	2.026963
458.380	2.020393
458.733	1.999022
459.086	2.010169
459.438	2.016246
459.791	1.992359
460.143	1.975056
460.496	1.970188
460.848	1.963467
461.200	1.944255
461.553	1.958346
461.905	1.975314
462.257	1.943030
462.609	1.920501
462.961	1.911899
463.314	1.918218
463.666	1.911968
464.018	1.922869
464.370	1.922804
464.722	1.902318
465.074	1.895345
465.426	1.912358
465.777	1.911336
466.129	1.914105
466.481	1.911704
466.833	1.898651
467.184	1.864004
467.536	1.871081
467.888	1.870917
468.239	1.854704
468.591	1.832433
468.943	1.836590
469.294	1.842386
469.646	1.836612
469.997	1.828406
470.348	1.839477
470.700	1.826063
471.051	1.819259
471.402	1.818042
471.754	1.827821
472.105	1.830794
472.456	1.813258
472.807	1.803388
473.158	1.806962
473.509	1.797150
473.860	1.788826
474.211	1.787406
474.562	1.786903
474.913	1.775326
475.264	1.765829
475.615	1.758152
475.966	1.756813
476.316	1.751503
476.667	1.757907
477.018	1.752695
477.368	1.751478
477.719	1.756388
478.070	1.753547
478.420	1.738328
478.771	1.736315
479.121	1.740404
479.472	1.738362
479.822	1.722737
480.172	1.727525
480.523	1.728855
480.873	1.724737
481.223	1.719120
481.573	1.725103
481.924	1.726712
482.274	1.714275
482.624	1.714614
482.974	1.716491
483.324	1.707817
483.674	1.701689
484.024	1.695891
484.374	1.692466
484.724	1.686496
485.073	1.683429
485.423	1.682620
485.773	1.681950
486.123	1.680862
486.472	1.678334
486.822	1.673303
487.172	1.669886
487.521	1.668374
487.871	1.665857
488.220	1.661008
488.570	1.657799
488.919	1.652911
489.268	1.651501
489.618	1.652702
489.967	1.648746
490.316	1.647201
490.666	1.638273
491.015	1.633093
491.364	1.635093
491.713	1.634730
492.062	1.628123
492.411	1.623409
492.760	1.616412
493.109	1.619344
493.458	1.617470
493.807	1.615985
494.156	1.613085
494.505	1.608057
494.853	1.602978
495.202	1.601317
495.551	1.597368
495.900	1.597303
496.248	1.591517
496.597	1.584305
496.945	1.581199
497.294	1.579669
497.642	1.576269
497.991	1.572680
498.339	1.573927
498.688	1.565546
499.036	1.561086
499.384	1.551238
499.732	1.550928
500.081	1.554093
500.429	1.556280
500.777	1.553997
501.125	1.548697
501.473	1.541220
501.821	1.543113
502.169	1.539195
502.517	1.544183
502.865	1.539950
503.213	1.533538
503.561	1.527403
503.908	1.521695
504.256	1.520896
504.604	1.519742
504.952	1.512640
505.299	1.511195
505.647	1.507518
505.994	1.506511
506.342	1.505590
506.689	1.500142
507.037	1.498659
507.384	1.492629
507.732	1.490771
508.079	1.490035
508.426	1.484889
508.774	1.482397
509.121	1.476067
509.468	1.472329
509.815	1.472089
510.162	1.470808
510.509	1.473498
510.856	1.466562
511.203	1.460487
511.550	1.462030
511.897	1.456529
512.244	1.455687
512.591	1.453676
512.938	1.451755
513.284	1.449010
513.631	1.439117
513.978	1.436254
514.324	1.434892
514.671	1.430031
515.018	1.429201
515.364	1.429513
515.711	1.427844
516.057	1.422987
516.403	1.418754
516.750	1.419759
517.096	1.417097
517.443	1.417803
517.789	1.413611
518.135	1.411000
518.481	1.405151
518.827	1.395922
519.173	1.392365
519.519	1.390647
519.865	1.386744
520.211	1.385203
520.557	1.381914
520.903	1.379908
521.249	1.371322
521.595	1.373529
521.941	1.374119
522.287	1.376218
522.632	1.376827
522.978	1.372443
523.324	1.372771
523.669	1.367709
524.015	1.367639
524.360	1.372669
524.706	1.367208
525.051	1.367003
525.397	1.361165
525.742	1.356962
526.087	1.360367
526.433	1.355427
526.778	1.357364
527.123	1.353185
527.468	1.346997
527.813	1.339795
528.158	1.338830
528.504	1.334838
528.849	1.333900
529.193	1.328842
529.538	1.327313
529.883	1.321015
530.228	1.319384
530.573	1.315448
530.918	1.314097
531.263	1.312585
531.607	1.311167
531.952	1.303216
532.296	1.301926
532.641	1.298649
532.986	1.298334
533.330	1.296806
533.675	1.297375
534.019	1.293944
534.363	1.289525
534.708	1.288130
535.052	1.287734
535.396	1.282278
535.741	1.279154
536.085	1.275022
536.429	1.269913
536.773	1.267483
537.117	1.267623
537.461	1.263710
537.805	1.261343
538.149	1.260959
538.493	1.259394
538.837	1.253963
539.181	1.250430
539.524	1.249808
539.868	1.245982
540.212	1.240715
540.556	1.236021
540.899	1.233442
541.243	1.227153
541.586	1.225246
541.930	1.224351
542.273	1.222946
542.617	1.217415
542.960	1.214146
543.304	1.211669
543.647	1.209743
543.990	1.206944
544.333	1.204162
544.677	1.198792
545.020	1.195870
545.363	1.193005
545.706	1.190590
546.049	1.185691
546.392	1.182416
546.735	1.180609
547.078	1.174951
547.421	1.172361
547.764	1.170554
548.106	1.166940
548.449	1.160839
548.792	1.158898
549.135	1.155699
549.477	1.152311
549.820	1.148485
550.162	1.143685
550.505	1.138249
550.847	1.133511
551.190	1.126426
551.532	1.122299
551.875	1.114071
552.217	1.109584
552.559	1.100920
552.901	1.094298
553.244	1.088188
553.586	1.083275
553.928	1.078355
554.270	1.075171
554.612	1.072392
554.954	1.069444
555.296	1.065828
555.638	1.064416
555.980	1.060834
556.322	1.059237
556.663	1.056029
557.005	1.052449
557.347	1.048765
557.689	1.041192
558.030	1.035598
558.372	1.028232
558.713	1.023253
559.055	1.018413
559.396	1.013189
559.738	1.007343
560.079	1.002338
560.421	0.996113
560.762	0.992219
561.103	0.989095
561.444	0.988237
561.786	0.983282
562.127	0.976940
562.468	0.971513
562.809	0.966866
563.150	0.961028
563.491	0.956461
563.832	0.949956
564.173	0.944232
564.514	0.936903
564.855	0.931647
565.195	0.926352
565.536	0.922224
565.877	0.916591
566.218	0.912368
566.558	0.907586
566.899	0.904315
567.239	0.899533
567.580	0.894135
567.920	0.889035
568.261	0.886278
568.601	0.881085
568.941	0.877513
569.282	0.872854
569.622	0.868984
569.962	0.864502
570.302	0.859770
570.643	0.855966
570.983	0.851675
571.323	0.846435
571.663	0.841921
572.003	0.836753
572.343	0.831654
572.683	0.826647
573.022	0.821774
573.362	0.816933
573.702	0.808592
574.042	0.797248
574.381	0.786102
574.721	0.774995
575.061	0.763190
575.400	0.750641
575.740	0.737760
576.079	0.725051
576.419	0.712208
576.758	0.700666
577.097	0.690533
577.437	0.682865
577.776	0.677893
578.115	0.673907
578.454	0.669055
578.794	0.661804
579.133	0.651967
579.472	0.640725
579.811	0.627599
580.150	0.613579
580.489	0.601688
580.828	0.592819
581.167	0.589377
581.505	0.591697
581.844	0.599008
582.183	0.609313
582.522	0.621182
582.860	0.633355
583.199	0.645394
583.538	0.654351
583.876	0.659945
584.215	0.661931
584.553	0.661246
584.891	0.659810
585.230	0.659194
585.568	0.659452
585.906	0.661765
586.245	0.666061
586.583	0.672530
586.921	0.681375
587.259	0.687585
587.597	0.686104
587.935	0.684550
588.273	0.683472
588.611	0.682478
588.949	0.680871
589.287	0.679680
589.625	0.677937
589.963	0.675697
590.300	0.673087
590.638	0.670109
590.976	0.667453
591.313	0.664428
591.651	0.662280
591.989	0.659814
592.326	0.657413
592.664	0.656187
593.001	0.654592
593.338	0.653260
593.676	0.652096
594.013	0.650493
594.350	0.649497
594.687	0.647889
595.025	0.646337
595.362	0.644823
595.699	0.642936
596.036	0.640891
596.373	0.638301
596.710	0.635471
597.047	0.633424
597.384	0.630745
597.720	0.628586
598.057	0.626496
598.394	0.624855
598.731	0.622594
599.067	0.620927
599.404	0.619562
599.741	0.618344
600.077	0.616609
600.414	0.615157
600.750	0.613814
601.087	0.612443
601.423	0.611069
601.759	0.609696
602.096	0.608121
602.432	0.606476
602.768	0.605740
603.104	0.604466
603.440	0.603415
603.776	0.601173
604.112	0.600115
604.448	0.598218
604.784	0.596334
605.120	0.594664
605.456	0.593237
