Date	2022年07月22日金曜日 03時22分08秒
Spectrometers	USB2+H05879
ダーク	使用
リファレンス	使用
積分時間[msec]	17
平均回数	10000
ｽﾑｰｼﾞﾝｸﾞ	0
Electrical Dark	USE
ピクセル数	2048
計測モード	吸光度
保存開始波長[nm]	190.664
保存終了波長[nm]	884.878
保存ﾋﾟｯﾁ波長[nm]	全波長

>>>>>>>>>> Data Start <<<<<<<<<<<<
190.664	0.000000
191.040	0.000000
191.415	0.000000
191.791	0.000000
192.166	0.000000
192.542	-0.155413
192.917	0.386558
193.293	0.000000
193.668	0.000000
194.044	0.000000
194.419	0.000000
194.794	0.000000
195.170	0.000000
195.545	0.000000
195.920	0.000000
196.296	0.000000
196.671	0.000000
197.046	0.000000
197.421	0.185807
197.796	0.000000
198.171	0.888685
198.546	0.000000
198.922	-0.001406
199.297	0.000000
199.672	0.000000
200.047	0.000000
200.422	0.000000
200.796	0.000000
201.171	0.000000
201.546	1.939622
201.921	0.000000
202.296	0.000000
202.671	0.000000
203.045	0.000000
203.420	0.606769
203.795	0.000000
204.170	0.000000
204.544	0.000000
204.919	0.000000
205.294	0.000000
205.668	0.000000
206.043	0.000000
206.417	0.833801
206.792	0.000000
207.166	0.000000
207.541	0.000000
207.915	0.000000
208.289	0.626386
208.664	0.000000
209.038	0.325639
209.412	0.000000
209.787	0.000000
210.161	0.023251
210.535	0.000000
210.909	0.714091
211.284	0.153204
211.658	0.000000
212.032	1.618515
212.406	0.489998
212.780	0.000000
213.154	0.055394
213.528	0.000000
213.902	0.263989
214.276	0.000000
214.650	0.000000
215.024	0.000000
215.398	0.180058
215.772	0.000000
216.145	0.000000
216.519	1.148909
216.893	0.000000
217.267	0.210418
217.640	0.000000
218.014	0.000000
218.388	0.154572
218.761	0.792941
219.135	0.339630
219.508	0.181280
219.882	0.000000
220.256	0.000000
220.629	0.000000
221.003	0.000000
221.376	0.000000
221.749	0.000000
222.123	0.000000
222.496	0.000000
222.869	0.000000
223.243	0.000000
223.616	0.076730
223.989	0.000000
224.362	0.000000
224.736	0.664569
225.109	1.126663
225.482	0.000000
225.855	0.090235
226.228	0.693397
226.601	0.000000
226.974	0.000000
227.347	0.000000
227.720	0.000000
228.093	0.000000
228.466	0.000000
228.839	-0.149641
229.212	0.788835
229.585	0.823234
229.957	0.940046
230.330	0.000000
230.703	0.000000
231.076	0.372038
231.448	0.840532
231.821	0.000000
232.194	-0.683239
232.566	0.000000
232.939	0.000000
233.311	0.000000
233.684	0.000000
234.056	0.000000
234.429	0.000000
234.801	0.000000
235.174	0.000000
235.546	0.000000
235.918	0.000000
236.291	0.452783
236.663	0.000000
237.035	0.474633
237.408	0.423586
237.780	0.125368
238.152	0.708031
238.524	0.000000
238.896	0.000000
239.268	0.000000
239.641	0.000000
240.013	0.090570
240.385	0.000000
240.757	0.000000
241.129	0.000000
241.500	0.000000
241.872	0.000000
242.244	0.715066
242.616	0.000000
242.988	0.000000
243.360	0.000000
243.731	0.000000
244.103	0.061267
244.475	0.000000
244.847	0.000000
245.218	0.000000
245.590	0.000000
245.961	0.226163
246.333	1.161091
246.705	0.000000
247.076	0.206235
247.448	0.000000
247.819	0.000000
248.190	0.620442
248.562	0.000000
248.933	0.000000
249.305	0.000000
249.676	-0.529337
250.047	0.198686
250.418	0.000000
250.790	0.000000
251.161	0.000000
251.532	0.000000
251.903	0.000000
252.274	0.000000
252.645	0.000000
253.016	1.136296
253.387	0.671085
253.758	0.000000
254.129	0.000000
254.500	1.926047
254.871	0.295455
255.242	0.983075
255.613	0.000000
255.984	0.193576
256.355	0.000000
256.725	0.000000
257.096	0.000000
257.467	0.965473
257.838	0.430457
258.208	0.000000
258.579	0.284484
258.949	0.000000
259.320	0.000000
259.690	0.000000
260.061	-0.039376
260.431	0.401185
260.802	0.793400
261.172	0.000000
261.543	0.000000
261.913	1.099539
262.283	-0.050860
262.654	0.000000
263.024	-0.289513
263.394	0.000000
263.764	0.673975
264.135	0.000000
264.505	0.026088
264.875	-0.080282
265.245	0.222614
265.615	0.249441
265.985	0.000000
266.355	0.000000
266.725	-1.182705
267.095	0.000000
267.465	0.321522
267.835	0.000000
268.205	1.346955
268.575	0.000000
268.944	0.000000
269.314	0.000000
269.684	0.000000
270.054	0.000000
270.423	0.000000
270.793	-0.197183
271.163	0.998079
271.532	0.000000
271.902	0.000000
272.271	-0.348257
272.641	0.000000
273.010	0.000000
273.380	0.000000
273.749	0.121829
274.119	0.000000
274.488	0.000000
274.857	0.000000
275.227	0.000000
275.596	0.000000
275.965	0.000000
276.335	0.000000
276.704	0.000000
277.073	0.000000
277.442	0.667574
277.811	0.675704
278.180	0.000000
278.549	0.000000
278.918	0.000000
279.287	0.000000
279.656	0.279792
280.025	0.180289
280.394	0.000000
280.763	1.014647
281.132	0.000000
281.501	0.000000
281.869	0.000000
282.238	0.000000
282.607	0.000000
282.976	0.650273
283.344	0.000000
283.713	0.000000
284.081	0.000000
284.450	0.000000
284.819	0.000000
285.187	0.000000
285.556	0.000000
285.924	0.650194
286.292	-1.276083
286.661	0.321654
287.029	0.814267
287.398	0.539263
287.766	0.000000
288.134	0.000000
288.502	0.000000
288.871	0.174037
289.239	0.000000
289.607	0.299271
289.975	0.433730
290.343	0.000000
290.711	0.000000
291.079	1.600219
291.447	1.370344
291.815	0.238209
292.183	-0.328374
292.551	0.000000
292.919	-0.867688
293.287	0.410246
293.655	0.778489
294.022	0.000000
294.390	0.000000
294.758	0.000000
295.126	0.486814
295.493	0.000000
295.861	0.190520
296.229	0.691179
296.596	0.593453
296.964	0.000000
297.331	0.000000
297.699	1.422023
298.066	0.000000
298.434	0.329382
298.801	1.066342
299.168	0.959050
299.536	0.000000
299.903	0.542252
300.270	0.000000
300.638	0.000000
301.005	1.201413
301.372	-0.355409
301.739	0.013810
302.106	0.000000
302.473	0.000000
302.840	0.000000
303.207	0.616733
303.574	-0.031499
303.941	0.000000
304.308	0.724181
304.675	0.152561
305.042	0.623523
305.409	0.000000
305.776	-0.192060
306.143	0.340826
306.509	0.000000
306.876	0.475642
307.243	0.856772
307.610	0.652003
307.976	2.616880
308.343	0.450063
308.709	0.987090
309.076	1.037350
309.442	0.512768
309.809	0.950850
310.175	1.213218
310.542	1.508500
310.908	1.054548
311.275	1.305439
311.641	0.827658
312.007	1.465808
312.373	1.250798
312.740	1.238504
313.106	1.194914
313.472	1.220362
313.838	1.437396
314.204	1.420607
314.570	1.197001
314.936	1.186520
315.302	0.000000
315.668	1.376920
316.034	1.678343
316.400	1.410888
316.766	1.348645
317.132	0.000000
317.498	1.421038
317.864	1.694874
318.230	2.047482
318.595	2.239949
318.961	2.476857
319.327	1.315117
319.692	1.805248
320.058	1.756285
320.424	1.690952
320.789	1.572488
321.155	1.587664
321.520	2.050404
321.886	1.666996
322.251	1.928773
322.616	1.852090
322.982	2.416286
323.347	1.832678
323.712	1.650971
324.078	2.768786
324.443	1.854165
324.808	2.565145
325.173	2.043230
325.539	1.794076
325.904	1.921442
326.269	2.100893
326.634	2.018902
326.999	2.359508
327.364	1.851247
327.729	2.080822
328.094	1.895770
328.459	2.189165
328.823	1.926081
329.188	1.704639
329.553	1.976269
329.918	2.280181
330.283	2.248906
330.647	2.012524
331.012	1.926559
331.377	2.274958
331.741	2.332367
332.106	2.165971
332.470	1.919304
332.835	2.054006
333.199	2.047489
333.564	2.106966
333.928	1.843501
334.293	1.860551
334.657	2.149994
335.021	2.001068
335.386	1.934062
335.750	2.073210
336.114	2.271229
336.478	2.219965
336.843	2.010907
337.207	2.152367
337.571	2.128145
337.935	2.308504
338.299	2.117372
338.663	2.215899
339.027	2.183389
339.391	2.195149
339.755	1.932487
340.119	2.078294
340.483	2.164927
340.846	2.223256
341.210	1.999816
341.574	2.095496
341.938	1.912324
342.301	2.069019
342.665	2.308544
343.029	2.287141
343.392	1.968005
343.756	2.176402
344.119	2.126305
344.483	2.335218
344.846	2.206098
345.210	2.081872
345.573	2.019422
345.937	2.260952
346.300	2.368178
346.663	2.140392
347.027	2.137484
347.390	2.095142
347.753	2.197718
348.116	2.097490
348.479	2.196543
348.843	2.113981
349.206	2.157966
349.569	1.942926
349.932	2.258198
350.295	2.230435
350.658	2.154728
351.021	1.977860
351.383	2.012633
351.746	2.227201
352.109	2.211092
352.472	2.017877
352.835	2.088506
353.197	2.242633
353.560	2.142392
353.923	2.178525
354.285	2.249082
354.648	2.046479
355.011	2.273524
355.373	2.134168
355.736	2.093538
356.098	2.125154
356.461	2.089422
356.823	2.472873
357.185	2.269334
357.548	2.070938
357.910	2.167675
358.272	2.201789
358.635	2.196657
358.997	2.195514
359.359	2.065065
359.721	2.244225
360.083	2.170921
360.445	2.276340
360.807	2.139625
361.169	2.083164
361.531	2.171021
361.893	2.132996
362.255	2.069874
362.617	2.116065
362.979	2.218296
363.341	2.264510
363.703	2.055104
364.064	2.094184
364.426	2.147430
364.788	2.023913
365.149	1.996167
365.511	2.146112
365.873	2.221335
366.234	2.185980
366.596	2.193988
366.957	2.254043
367.319	2.082191
367.680	2.082516
368.042	2.057650
368.403	2.098480
368.764	2.128628
369.126	2.147535
369.487	2.122605
369.848	2.148107
370.209	2.161099
370.570	2.071365
370.931	2.127369
371.293	2.284303
371.654	2.140285
372.015	2.206542
372.376	2.103406
372.737	2.054370
373.098	2.225129
373.458	2.204173
373.819	2.122645
374.180	2.110340
374.541	2.346831
374.902	2.275403
375.263	2.079455
375.623	1.977368
375.984	2.090597
376.345	2.162332
376.705	2.187161
377.066	2.186781
377.426	2.312752
377.787	2.290088
378.147	2.095332
378.508	2.092079
378.868	2.311600
379.228	2.239545
379.589	2.251814
379.949	2.150781
380.309	2.343962
380.670	2.270766
381.030	2.109094
381.390	2.405800
381.750	2.261663
382.110	2.254627
382.470	2.262974
382.830	2.241424
383.190	2.126033
383.550	2.238263
383.910	2.128474
384.270	2.223323
384.630	2.199502
384.990	2.113153
385.350	2.117753
385.709	2.219845
386.069	2.277501
386.429	2.203477
386.788	2.221621
387.148	2.213398
387.508	2.226223
387.867	2.214226
388.227	2.242247
388.586	2.144954
388.946	1.990823
389.305	2.178957
389.665	2.243605
390.024	2.455460
390.383	2.376927
390.743	2.102513
391.102	2.321619
391.461	2.074842
391.820	2.240521
392.179	2.107617
392.539	2.203713
392.898	2.164565
393.257	2.219995
393.616	2.128412
393.975	2.049723
394.334	2.091172
394.693	2.104550
395.051	2.267651
395.410	2.438121
395.769	2.200190
396.128	2.233657
396.487	2.095753
396.845	2.205558
397.204	2.182176
397.563	2.348632
397.921	2.157247
398.280	2.124352
398.638	2.234124
398.997	2.102339
399.355	2.217234
399.714	2.165537
400.072	2.311310
400.431	2.121064
400.789	2.372656
401.147	2.103488
401.506	2.097914
401.864	2.082926
402.222	2.323120
402.580	2.251942
402.938	2.035640
403.297	2.077409
403.655	2.302945
404.013	2.112796
404.371	2.138510
404.729	2.380612
405.087	2.152788
405.444	2.296564
405.802	2.218554
406.160	2.225880
406.518	2.167051
406.876	2.122315
407.233	2.215432
407.591	2.336479
407.949	2.412638
408.306	2.058793
408.664	2.189334
409.022	2.248730
409.379	2.232023
409.737	2.155043
410.094	2.186569
410.451	2.214473
410.809	2.201873
411.166	2.044626
411.523	2.095732
411.881	2.093697
412.238	2.175794
412.595	2.201470
412.952	2.223162
413.310	2.061084
413.667	2.329429
414.024	2.213252
414.381	2.146949
414.738	2.157855
415.095	2.250979
415.452	2.102689
415.809	2.168711
416.165	2.096682
416.522	2.127074
416.879	2.223137
417.236	2.343855
417.593	2.241666
417.949	2.365770
418.306	2.349805
418.663	2.164594
419.019	2.113809
419.376	2.106732
419.732	2.246509
420.089	2.172249
420.445	2.171575
420.802	2.172307
421.158	2.306394
421.514	2.179470
421.871	2.123397
422.227	2.157627
422.583	2.102400
422.939	2.099334
423.295	2.071975
423.652	2.324468
424.008	2.203457
424.364	2.055274
424.720	2.078601
425.076	2.136912
425.432	2.215214
425.788	2.187551
426.143	2.158414
426.499	2.053333
426.855	2.110164
427.211	2.158313
427.567	2.204302
427.922	2.107693
428.278	2.318015
428.634	2.158368
428.989	2.301045
429.345	2.139792
429.700	2.281147
430.056	2.078485
430.411	2.099323
430.767	2.219468
431.122	2.199330
431.478	2.147677
431.833	2.207450
432.188	2.167751
432.543	2.121266
432.899	2.293413
433.254	2.074232
433.609	2.142974
433.964	2.210230
434.319	2.293830
434.674	2.236381
435.029	2.221492
435.384	2.100831
435.739	2.145846
436.094	2.211314
436.449	2.145092
436.804	2.264339
437.158	2.086115
437.513	2.238626
437.868	2.198127
438.223	2.098804
438.577	2.096749
438.932	2.022552
439.287	2.131669
439.641	2.129931
439.996	2.157252
440.350	2.087812
440.704	2.131616
441.059	2.209089
441.413	2.222363
441.768	1.961325
442.122	2.228821
442.476	2.125961
442.830	2.055268
443.185	2.093948
443.539	2.099143
443.893	2.085232
444.247	2.189162
444.601	2.069978
444.955	2.081572
445.309	2.132515
445.663	2.006121
446.017	2.025858
446.371	2.074064
446.724	2.101575
447.078	1.994655
447.432	1.983812
447.786	2.140712
448.139	2.057830
448.493	2.159932
448.847	2.024370
449.200	1.969695
449.554	1.979244
449.907	2.080204
450.261	2.067614
450.614	2.133363
450.968	1.987779
451.321	2.099278
451.674	2.003569
452.027	2.028740
452.381	2.024094
452.734	2.060347
453.087	2.133310
453.440	2.031979
453.793	2.074430
454.146	2.205143
454.499	2.055437
454.852	2.043354
455.205	1.992940
455.558	1.938326
455.911	2.084505
456.264	2.066071
456.617	2.007913
456.970	2.030275
457.322	1.963638
457.675	2.009049
458.028	1.990201
458.380	2.023677
458.733	2.129850
459.086	2.050457
459.438	2.101047
459.791	2.011933
460.143	1.998474
460.496	1.953265
460.848	1.970054
461.200	2.008658
461.553	1.991540
461.905	2.031994
462.257	2.121713
462.609	2.032837
462.961	1.952378
463.314	1.902702
463.666	1.933242
464.018	1.986081
464.370	2.003880
464.722	1.973331
465.074	1.906158
465.426	1.929653
465.777	1.894635
466.129	1.912700
466.481	1.868917
466.833	1.897231
467.184	2.020205
467.536	1.926967
467.888	2.010229
468.239	1.943038
468.591	1.940550
468.943	2.031673
469.294	1.853291
469.646	1.972630
469.997	1.885498
470.348	1.938286
470.700	1.779877
471.051	1.845198
471.402	1.970394
471.754	1.960812
472.105	1.925255
472.456	1.952349
472.807	1.949239
473.158	1.883178
473.509	1.848963
473.860	1.951050
474.211	1.903029
474.562	1.949663
474.913	1.936623
475.264	1.914606
475.615	1.908131
475.966	1.911447
476.316	1.920792
476.667	1.830561
477.018	1.899603
477.368	1.841056
477.719	1.879675
478.070	1.903396
478.420	1.829356
478.771	1.914852
479.121	1.853750
479.472	1.864017
479.822	1.867172
480.172	1.819560
480.523	1.829948
480.873	1.801683
481.223	1.827104
481.573	1.847770
481.924	1.814476
482.274	1.848169
482.624	1.861339
482.974	1.824300
483.324	1.863439
483.674	1.772117
484.024	1.806781
484.374	1.907888
484.724	1.829972
485.073	1.806198
485.423	1.812561
485.773	1.808321
486.123	1.794471
486.472	1.799173
486.822	1.801976
487.172	1.820540
487.521	1.799624
487.871	1.764358
488.220	1.776169
488.570	1.850918
488.919	1.812678
489.268	1.824447
489.618	1.791357
489.967	1.812273
490.316	1.803971
490.666	1.725532
491.015	1.806959
491.364	1.712760
491.713	1.771130
492.062	1.763214
492.411	1.790037
492.760	1.805608
493.109	1.815000
493.458	1.765312
493.807	1.775142
494.156	1.796936
494.505	1.725550
494.853	1.727850
495.202	1.757150
495.551	1.770858
495.900	1.750230
496.248	1.725105
496.597	1.725670
496.945	1.751697
497.294	1.725979
497.642	1.735931
497.991	1.698154
498.339	1.721510
498.688	1.715662
499.036	1.725872
499.384	1.729610
499.732	1.707425
500.081	1.724802
500.429	1.697064
500.777	1.756531
501.125	1.707881
501.473	1.722386
501.821	1.722042
502.169	1.692252
502.517	1.696420
502.865	1.684679
503.213	1.689341
503.561	1.701880
503.908	1.705657
504.256	1.673072
504.604	1.650179
504.952	1.654973
505.299	1.654473
505.647	1.667104
505.994	1.725402
506.342	1.681564
506.689	1.685211
507.037	1.641107
507.384	1.664462
507.732	1.641129
508.079	1.649723
508.426	1.656089
508.774	1.617578
509.121	1.638781
509.468	1.647006
509.815	1.637311
510.162	1.642951
510.509	1.641660
510.856	1.657952
511.203	1.632851
511.550	1.644825
511.897	1.642398
512.244	1.614485
512.591	1.635116
512.938	1.599444
513.284	1.621338
513.631	1.625398
513.978	1.677191
514.324	1.613113
514.671	1.631785
515.018	1.588240
515.364	1.593781
515.711	1.636037
516.057	1.653913
516.403	1.609417
516.750	1.586082
517.096	1.616300
517.443	1.592656
517.789	1.631557
518.135	1.587526
518.481	1.637495
518.827	1.649418
519.173	1.597874
519.519	1.644071
519.865	1.612622
520.211	1.593920
520.557	1.574726
520.903	1.564023
521.249	1.602095
521.595	1.593094
521.941	1.611727
522.287	1.626341
522.632	1.567081
522.978	1.594112
523.324	1.594982
523.669	1.574733
524.015	1.571616
524.360	1.581370
524.706	1.583242
525.051	1.577993
525.397	1.557372
525.742	1.562224
526.087	1.581571
526.433	1.552413
526.778	1.550839
527.123	1.564854
527.468	1.530634
527.813	1.542256
528.158	1.571067
528.504	1.563510
528.849	1.579876
529.193	1.548132
529.538	1.530953
529.883	1.527541
530.228	1.518363
530.573	1.557062
530.918	1.549525
531.263	1.515386
531.607	1.506668
531.952	1.534619
532.296	1.500434
532.641	1.526287
532.986	1.511088
533.330	1.531681
533.675	1.544274
534.019	1.505480
534.363	1.494301
534.708	1.488110
535.052	1.497524
535.396	1.504928
535.741	1.513646
536.085	1.479858
536.429	1.508432
536.773	1.473708
537.117	1.517935
537.461	1.472403
537.805	1.501082
538.149	1.481663
538.493	1.498865
538.837	1.460079
539.181	1.457149
539.524	1.459470
539.868	1.451334
540.212	1.469954
540.556	1.459154
540.899	1.446840
541.243	1.449971
541.586	1.424112
541.930	1.465355
542.273	1.479366
542.617	1.437383
542.960	1.425559
543.304	1.441404
543.647	1.413720
543.990	1.411646
544.333	1.424381
544.677	1.398214
545.020	1.439550
545.363	1.417255
545.706	1.413440
546.049	1.421470
546.392	1.389537
546.735	1.382375
547.078	1.387893
547.421	1.378625
547.764	1.393349
548.106	1.358990
548.449	1.399017
548.792	1.368465
549.135	1.358979
549.477	1.377630
549.820	1.363454
550.162	1.326759
550.505	1.355321
550.847	1.341715
551.190	1.336628
551.532	1.328590
551.875	1.306326
552.217	1.311564
552.559	1.319452
552.901	1.325107
553.244	1.311822
553.586	1.314133
553.928	1.307744
554.270	1.298884
554.612	1.290110
554.954	1.297294
555.296	1.285492
555.638	1.283395
555.980	1.259394
556.322	1.265799
556.663	1.265026
557.005	1.260877
557.347	1.238066
557.689	1.252588
558.030	1.224570
558.372	1.226543
558.713	1.222061
559.055	1.220290
559.396	1.209812
559.738	1.212886
560.079	1.206324
560.421	1.211807
560.762	1.187839
561.103	1.198487
561.444	1.192152
561.786	1.187239
562.127	1.176675
562.468	1.174514
562.809	1.159305
563.150	1.165012
563.491	1.149937
563.832	1.143798
564.173	1.126004
564.514	1.127595
564.855	1.121322
565.195	1.123542
565.536	1.117194
565.877	1.104566
566.218	1.105658
566.558	1.101594
566.899	1.098925
567.239	1.082955
567.580	1.079829
567.920	1.082029
568.261	1.067587
568.601	1.063933
568.941	1.066862
569.282	1.059368
569.622	1.051223
569.962	1.041858
570.302	1.040971
570.643	1.030554
570.983	1.028077
571.323	1.019497
571.663	1.015961
572.003	1.003532
572.343	0.990853
572.683	0.978642
573.022	0.959668
573.362	0.938456
573.702	0.907583
574.042	0.890168
574.381	0.876117
574.721	0.871864
575.061	0.868262
575.400	0.865532
575.740	0.865062
576.079	0.855399
576.419	0.830843
576.758	0.801786
577.097	0.774084
577.437	0.759137
577.776	0.753173
578.115	0.749306
578.454	0.748320
578.794	0.762981
579.133	0.772157
579.472	0.777053
579.811	0.766169
580.150	0.732138
580.489	0.694610
580.828	0.662724
581.167	0.640606
581.505	0.625362
581.844	0.625644
582.183	0.640150
582.522	0.675588
582.860	0.719568
583.199	0.756616
583.538	0.771648
583.876	0.772278
584.215	0.755384
584.553	0.735409
584.891	0.719381
585.230	0.715536
585.568	0.718231
585.906	0.724116
586.245	0.731876
586.583	0.739324
586.921	0.744434
587.259	0.745032
587.597	0.746243
587.935	0.753342
588.273	0.771099
588.611	0.791201
588.949	0.807958
589.287	0.811911
589.625	0.808944
589.963	0.809590
590.300	0.801950
590.638	0.802993
590.976	0.800444
591.313	0.795286
591.651	0.790924
591.989	0.785055
592.326	0.778709
592.664	0.776933
593.001	0.770369
593.338	0.762583
593.676	0.760511
594.013	0.765554
594.350	0.769520
594.687	0.764114
595.025	0.760475
595.362	0.757414
595.699	0.757548
596.036	0.759496
596.373	0.757494
596.710	0.756861
597.047	0.751345
597.384	0.746948
597.720	0.744812
598.057	0.741234
598.394	0.740370
598.731	0.733997
599.067	0.731411
599.404	0.728021
599.741	0.730026
600.077	0.730454
600.414	0.725481
600.750	0.729282
601.087	0.723276
601.423	0.723047
601.759	0.720844
602.096	0.721168
602.432	0.716898
602.768	0.713282
603.104	0.707841
603.440	0.709456
603.776	0.710666
604.112	0.707281
604.448	0.705324
604.784	0.704856
605.120	0.702365
