Date	2022年12月13日火曜日 03時47分10秒
Spectrometers	USB2+H05879
ダーク	使用
リファレンス	使用
積分時間[msec]	2
平均回数	10000
ｽﾑｰｼﾞﾝｸﾞ	0
Electrical Dark	USE
ピクセル数	2048
計測モード	吸光度
保存開始波長[nm]	190.664
保存終了波長[nm]	884.878
保存ﾋﾟｯﾁ波長[nm]	全波長

>>>>>>>>>> Data Start <<<<<<<<<<<<
190.664	0.000000
191.040	0.000000
191.415	0.000000
191.791	0.000000
192.166	0.256213
192.542	0.116909
192.917	0.873725
193.293	0.000000
193.668	0.141914
194.044	0.494786
194.419	0.000000
194.794	0.000000
195.170	0.499224
195.545	0.658282
195.920	0.000000
196.296	0.000000
196.671	0.000000
197.046	0.000000
197.421	0.000000
197.796	0.000000
198.171	0.000000
198.546	0.000000
198.922	0.000000
199.297	0.000000
199.672	0.000000
200.047	0.000000
200.422	0.420350
200.796	0.000000
201.171	0.000000
201.546	0.000000
201.921	1.231172
202.296	0.351282
202.671	0.000000
203.045	0.000000
203.420	0.362544
203.795	-0.028522
204.170	-0.229982
204.544	0.112454
204.919	0.946283
205.294	0.000000
205.668	0.327236
206.043	0.000000
206.417	0.000000
206.792	0.336715
207.166	0.000000
207.541	0.000000
207.915	-0.019712
208.289	0.000000
208.664	0.000000
209.038	1.549515
209.412	0.282717
209.787	0.000000
210.161	0.645842
210.535	0.327331
210.909	0.630952
211.284	0.000000
211.658	-0.654660
212.032	0.065308
212.406	0.000000
212.780	0.471067
213.154	0.000000
213.528	0.407102
213.902	0.416402
214.276	0.000000
214.650	0.000000
215.024	0.000000
215.398	0.000000
215.772	0.000000
216.145	-0.303218
216.519	0.000000
216.893	0.420471
217.267	0.000000
217.640	0.000000
218.014	0.702565
218.388	0.000000
218.761	0.000000
219.135	0.920865
219.508	0.000000
219.882	0.350687
220.256	0.000000
220.629	0.319208
221.003	1.046069
221.376	0.696112
221.749	1.779764
222.123	-0.095629
222.496	0.000000
222.869	0.262469
223.243	0.000000
223.616	-0.054164
223.989	0.000000
224.362	0.000000
224.736	0.070355
225.109	0.000000
225.482	0.000000
225.855	0.140084
226.228	0.700295
226.601	0.323222
226.974	0.000000
227.347	0.000000
227.720	0.000000
228.093	0.244887
228.466	-0.207678
228.839	0.000000
229.212	0.000000
229.585	0.000000
229.957	-0.097078
230.330	0.207110
230.703	0.256128
231.076	0.000000
231.448	0.123864
231.821	0.000000
232.194	0.000000
232.566	0.000000
232.939	0.000000
233.311	0.000000
233.684	0.000000
234.056	0.000000
234.429	0.279080
234.801	0.000000
235.174	0.222301
235.546	0.000000
235.918	0.000000
236.291	0.000000
236.663	-0.118161
237.035	0.000000
237.408	0.297566
237.780	1.047420
238.152	0.000000
238.524	0.000000
238.896	0.000000
239.268	-0.166015
239.641	0.345005
240.013	0.000000
240.385	0.164075
240.757	0.055067
241.129	0.000000
241.500	0.054072
241.872	0.000000
242.244	0.000000
242.616	0.000000
242.988	0.000000
243.360	0.000000
243.731	0.000000
244.103	0.198013
244.475	0.431655
244.847	0.000000
245.218	0.000000
245.590	0.000000
245.961	0.000000
246.333	0.000000
246.705	0.000000
247.076	0.613759
247.448	0.000000
247.819	-0.044353
248.190	0.000000
248.562	0.779486
248.933	0.000000
249.305	0.259527
249.676	0.000000
250.047	0.000000
250.418	0.000000
250.790	0.000000
251.161	0.186526
251.532	0.438776
251.903	0.000000
252.274	0.010557
252.645	0.000000
253.016	0.000000
253.387	-0.515395
253.758	2.046460
254.129	0.429321
254.500	-0.034274
254.871	0.096294
255.242	0.000000
255.613	0.584084
255.984	-0.245216
256.355	0.000000
256.725	0.000000
257.096	0.000000
257.467	0.000000
257.838	0.000000
258.208	0.455109
258.579	0.530508
258.949	0.000000
259.320	0.000000
259.690	0.571600
260.061	0.396889
260.431	0.079808
260.802	0.000000
261.172	0.000000
261.543	0.178644
261.913	0.208498
262.283	1.094304
262.654	0.000000
263.024	0.000000
263.394	0.166464
263.764	0.242750
264.135	0.545421
264.505	0.000000
264.875	0.000000
265.245	0.274117
265.615	0.630101
265.985	0.314368
266.355	0.660298
266.725	1.379948
267.095	0.116826
267.465	0.000000
267.835	0.000000
268.205	0.000000
268.575	0.291855
268.944	0.056177
269.314	0.369158
269.684	0.634643
270.054	-0.067397
270.423	0.820887
270.793	0.000000
271.163	0.000000
271.532	0.000000
271.902	0.000000
272.271	0.940785
272.641	0.000000
273.010	0.222620
273.380	0.000000
273.749	0.000000
274.119	0.000000
274.488	0.000000
274.857	0.000000
275.227	0.616168
275.596	0.000000
275.965	0.128975
276.335	0.000000
276.704	1.052609
277.073	0.542588
277.442	0.810060
277.811	0.000000
278.180	-0.622684
278.549	0.405632
278.918	0.359442
279.287	0.183947
279.656	0.000000
280.025	0.000000
280.394	0.729798
280.763	0.093426
281.132	0.000000
281.501	0.132332
281.869	0.000000
282.238	0.628824
282.607	0.296899
282.976	-0.018044
283.344	0.705067
283.713	0.332302
284.081	0.000000
284.450	0.293071
284.819	0.000000
285.187	0.000000
285.556	0.000000
285.924	0.000000
286.292	0.000000
286.661	0.000000
287.029	0.000000
287.398	0.000000
287.766	0.086661
288.134	0.000000
288.502	0.390162
288.871	-0.368113
289.239	0.000000
289.607	0.153731
289.975	0.000000
290.343	0.028570
290.711	-0.115753
291.079	0.000000
291.447	0.623109
291.815	0.000000
292.183	0.282547
292.551	0.429609
292.919	0.744845
293.287	0.000000
293.655	0.000000
294.022	0.000000
294.390	0.000000
294.758	0.000000
295.126	0.000000
295.493	0.000000
295.861	1.498677
296.229	0.012173
296.596	0.971185
296.964	0.000000
297.331	0.205614
297.699	0.000000
298.066	2.500059
298.434	0.000000
298.801	0.308524
299.168	0.000000
299.536	0.443103
299.903	0.249256
300.270	0.315604
300.638	0.000000
301.005	-0.060705
301.372	0.000000
301.739	0.000000
302.106	0.414127
302.473	0.262684
302.840	0.000000
303.207	0.232598
303.574	0.000000
303.941	0.000000
304.308	0.000000
304.675	1.790960
305.042	0.000000
305.409	0.000000
305.776	1.373966
306.143	0.586132
306.509	0.000000
306.876	0.000000
307.243	0.000000
307.610	0.000000
307.976	0.000000
308.343	0.835394
308.709	0.589494
309.076	0.000000
309.442	0.000000
309.809	0.000000
310.175	0.000000
310.542	0.837672
310.908	0.698115
311.275	0.000000
311.641	1.802305
312.007	1.972630
312.373	0.000000
312.740	0.000000
313.106	1.012560
313.472	1.205432
313.838	2.016382
314.204	1.501475
314.570	0.000000
314.936	1.281855
315.302	0.000000
315.668	0.000000
316.034	0.000000
316.400	1.200010
316.766	2.102589
317.132	0.000000
317.498	0.000000
317.864	2.031696
318.230	0.000000
318.595	0.000000
318.961	2.704232
319.327	1.204660
319.692	2.083710
320.058	1.624504
320.424	0.000000
320.789	1.546014
321.155	2.124077
321.520	1.482122
321.886	0.000000
322.251	0.000000
322.616	2.350754
322.982	1.771919
323.347	1.453707
323.712	1.959396
324.078	1.548935
324.443	0.000000
324.808	2.131820
325.173	0.000000
325.539	0.000000
325.904	0.000000
326.269	0.000000
326.634	1.703323
326.999	2.469344
327.364	2.202603
327.729	2.321287
328.094	2.175419
328.459	0.000000
328.823	0.000000
329.188	2.062959
329.553	0.000000
329.918	0.000000
330.283	0.000000
330.647	0.000000
331.012	0.000000
331.377	3.123821
331.741	1.811316
332.106	2.631585
332.470	2.188816
332.835	2.147041
333.199	3.437126
333.564	2.325154
333.928	0.000000
334.293	1.820164
334.657	0.000000
335.021	2.103757
335.386	2.060632
335.750	2.255503
336.114	2.223019
336.478	3.410985
336.843	1.977693
337.207	0.000000
337.571	1.936578
337.935	2.423523
338.299	2.475844
338.663	0.000000
339.027	2.434061
339.391	0.000000
339.755	0.000000
340.119	2.233827
340.483	0.000000
340.846	2.510235
341.210	2.013344
341.574	2.185302
341.938	2.689003
342.301	2.501028
342.665	2.050950
343.029	2.157303
343.392	2.352421
343.756	0.000000
344.119	2.670351
344.483	2.348657
344.846	2.036140
345.210	2.167985
345.573	1.867509
345.937	2.055266
346.300	2.065388
346.663	2.784816
347.027	2.689934
347.390	2.109842
347.753	2.459824
348.116	2.207559
348.479	1.930557
348.843	2.568685
349.206	2.027276
349.569	2.269959
349.932	2.654693
350.295	0.000000
350.658	0.000000
351.021	2.155549
351.383	2.571021
351.746	2.069911
352.109	1.990602
352.472	2.608032
352.835	1.975896
353.197	2.138543
353.560	2.333951
353.923	1.943948
354.285	2.315792
354.648	2.030226
355.011	2.081275
355.373	2.514616
355.736	2.271627
356.098	1.945614
356.461	2.579624
356.823	2.252837
357.185	2.397092
357.548	2.256202
357.910	2.113715
358.272	2.032279
358.635	2.775576
358.997	2.006602
359.359	1.914714
359.721	2.517406
360.083	2.237280
360.445	2.465781
360.807	0.000000
361.169	2.489820
361.531	2.099746
361.893	2.442475
362.255	2.759367
362.617	2.032193
362.979	2.006994
363.341	2.071841
363.703	2.103241
364.064	2.924913
364.426	2.184269
364.788	1.946386
365.149	2.045950
365.511	2.231186
365.873	2.097861
366.234	1.936245
366.596	2.021420
366.957	2.266156
367.319	1.991241
367.680	2.040346
368.042	2.601250
368.403	2.086220
368.764	2.216231
369.126	2.506549
369.487	2.348283
369.848	2.030872
370.209	2.298039
370.570	2.175084
370.931	2.305165
371.293	2.276881
371.654	2.081078
372.015	2.145679
372.376	2.481924
372.737	2.045269
373.098	2.108813
373.458	2.096363
373.819	1.850665
374.180	2.219769
374.541	2.576810
374.902	2.412515
375.263	1.994341
375.623	2.487761
375.984	2.225966
376.345	2.343635
376.705	3.097681
377.066	2.293071
377.426	2.165128
377.787	2.176161
378.147	2.442968
378.508	3.234373
378.868	2.238707
379.228	2.003060
379.589	2.441141
379.949	2.048849
380.309	2.226741
380.670	2.572700
381.030	2.076723
381.390	2.126386
381.750	2.102593
382.110	2.640202
382.470	2.694954
382.830	2.071641
383.190	2.304863
383.550	1.926865
383.910	2.495553
384.270	2.052781
384.630	2.036258
384.990	2.189166
385.350	2.959505
385.709	2.260996
386.069	2.586509
386.429	2.227254
386.788	2.027395
387.148	2.403396
387.508	2.282487
387.867	2.141831
388.227	2.034456
388.586	2.551471
388.946	2.451842
389.305	2.068673
389.665	1.941169
390.024	2.094371
390.383	2.267558
390.743	2.235334
391.102	0.000000
391.461	3.012663
391.820	2.640334
392.179	2.213916
392.539	2.420165
392.898	2.142309
393.257	2.104720
393.616	2.172888
393.975	2.466218
394.334	2.076725
394.693	2.136788
395.051	2.555181
395.410	2.351763
395.769	2.146055
396.128	2.464872
396.487	2.507149
396.845	2.696561
397.204	2.532008
397.563	2.554518
397.921	2.219737
398.280	2.824809
398.638	2.150796
398.997	2.308253
399.355	2.283916
399.714	2.251119
400.072	2.096314
400.431	2.271920
400.789	2.274003
401.147	2.308502
401.506	2.229190
401.864	2.039779
402.222	2.094923
402.580	2.069594
402.938	1.984802
403.297	2.207803
403.655	2.156633
404.013	3.094688
404.371	2.397727
404.729	2.008572
405.087	2.171206
405.444	2.476374
405.802	2.535314
406.160	2.272345
406.518	2.420262
406.876	2.245758
407.233	2.071261
407.591	2.564070
407.949	2.223941
408.306	2.386049
408.664	2.428090
409.022	2.371876
409.379	2.213944
409.737	2.312784
410.094	2.516454
410.451	2.161980
410.809	2.398267
411.166	2.156031
411.523	2.144218
411.881	1.887301
412.238	2.510716
412.595	2.178598
412.952	2.249234
413.310	2.213274
413.667	2.131269
414.024	2.244647
414.381	0.000000
414.738	2.124744
415.095	2.064250
415.452	2.171500
415.809	2.119045
416.165	2.335497
416.522	2.189198
416.879	2.137692
417.236	2.466020
417.593	2.196726
417.949	2.602415
418.306	2.316156
418.663	2.363523
419.019	2.222594
419.376	2.165185
419.732	2.010148
420.089	2.127660
420.445	2.278875
420.802	2.181994
421.158	2.394188
421.514	2.059292
421.871	2.022694
422.227	2.157550
422.583	2.601341
422.939	2.375021
423.295	2.063344
423.652	2.195458
424.008	2.073753
424.364	2.616893
424.720	1.907974
425.076	1.933628
425.432	2.161842
425.788	2.062854
426.143	2.383448
426.499	2.037764
426.855	2.230669
427.211	2.165848
427.567	2.131083
427.922	2.171930
428.278	2.027762
428.634	2.220398
428.989	2.043448
429.345	2.106302
429.700	1.954269
430.056	2.326164
430.411	1.852528
430.767	2.305876
431.122	2.113684
431.478	2.262662
431.833	2.249426
432.188	2.084815
432.543	2.171972
432.899	1.892335
433.254	2.095919
433.609	1.991229
433.964	2.045575
434.319	2.118430
434.674	2.066174
435.029	2.045051
435.384	2.064362
435.739	1.956652
436.094	2.513336
436.449	2.007775
436.804	2.124469
437.158	1.797730
437.513	2.210887
437.868	1.981074
438.223	2.051271
438.577	1.807266
438.932	1.927058
439.287	1.992697
439.641	2.059398
439.996	1.923238
440.350	2.040007
440.704	2.009938
441.059	1.999546
441.413	1.950133
441.768	1.965721
442.122	1.908642
442.476	1.871678
442.830	1.836510
443.185	1.887039
443.539	1.876281
443.893	1.888964
444.247	1.885465
444.601	1.925629
444.955	1.927730
445.309	1.946596
445.663	1.987562
446.017	1.932537
446.371	2.086100
446.724	1.968628
447.078	1.732947
447.432	1.983216
447.786	2.005271
448.139	1.892083
448.493	1.830981
448.847	1.831310
449.200	1.792884
449.554	1.864540
449.907	1.868936
450.261	1.794187
450.614	1.831836
450.968	1.728800
451.321	1.848020
451.674	1.767052
452.027	1.883917
452.381	1.720195
452.734	1.818721
453.087	1.736574
453.440	1.775613
453.793	1.696951
454.146	1.767959
454.499	1.839815
454.852	1.853099
455.205	1.870599
455.558	1.728026
455.911	1.926732
456.264	1.735269
456.617	1.755885
456.970	1.797897
457.322	1.738349
457.675	1.740799
458.028	1.712551
458.380	1.785411
458.733	1.798617
459.086	1.692260
459.438	1.743185
459.791	1.689328
460.143	1.713401
460.496	1.783647
460.848	1.703868
461.200	1.750072
461.553	1.628982
461.905	1.649778
462.257	1.784810
462.609	1.660841
462.961	1.650428
463.314	1.683622
463.666	1.740829
464.018	1.675282
464.370	1.658426
464.722	1.627220
465.074	1.674924
465.426	1.620662
465.777	1.659869
466.129	1.654369
466.481	1.620970
466.833	1.628974
467.184	1.655688
467.536	1.682197
467.888	1.549399
468.239	1.644541
468.591	1.647635
468.943	1.603447
469.294	1.583823
469.646	1.658349
469.997	1.597038
470.348	1.636810
470.700	1.553731
471.051	1.561844
471.402	1.597776
471.754	1.521252
472.105	1.547767
472.456	1.582920
472.807	1.542776
473.158	1.570147
473.509	1.543395
473.860	1.560562
474.211	1.560872
474.562	1.476449
474.913	1.498272
475.264	1.582730
475.615	1.517299
475.966	1.546111
476.316	1.557508
476.667	1.510853
477.018	1.505961
477.368	1.548082
477.719	1.497390
478.070	1.579608
478.420	1.514661
478.771	1.476940
479.121	1.501014
479.472	1.476239
479.822	1.463051
480.172	1.524059
480.523	1.493249
480.873	1.456092
481.223	1.444400
481.573	1.491961
481.924	1.508810
482.274	1.446933
482.624	1.494071
482.974	1.489871
483.324	1.488666
483.674	1.428785
484.024	1.478159
484.374	1.463565
484.724	1.464690
485.073	1.460028
485.423	1.477221
485.773	1.453920
486.123	1.458065
486.472	1.460426
486.822	1.427229
487.172	1.416975
487.521	1.403178
487.871	1.401573
488.220	1.421559
488.570	1.456059
488.919	1.443905
489.268	1.450804
489.618	1.454654
489.967	1.449841
490.316	1.432517
490.666	1.397764
491.015	1.407304
491.364	1.397587
491.713	1.413444
492.062	1.388392
492.411	1.420860
492.760	1.356912
493.109	1.395704
493.458	1.392112
493.807	1.415256
494.156	1.374138
494.505	1.393485
494.853	1.385239
495.202	1.381051
495.551	1.373962
495.900	1.331352
496.248	1.363412
496.597	1.344998
496.945	1.358392
497.294	1.353259
497.642	1.353381
497.991	1.374427
498.339	1.355045
498.688	1.341298
499.036	1.341180
499.384	1.358451
499.732	1.348712
500.081	1.344517
500.429	1.342234
500.777	1.330063
501.125	1.310843
501.473	1.317099
501.821	1.312949
502.169	1.305307
502.517	1.320493
502.865	1.293108
503.213	1.283367
503.561	1.295999
503.908	1.306716
504.256	1.275649
504.604	1.273319
504.952	1.304412
505.299	1.288143
505.647	1.265365
505.994	1.252490
506.342	1.287624
506.689	1.250999
507.037	1.270082
507.384	1.276817
507.732	1.253680
508.079	1.274363
508.426	1.266787
508.774	1.266691
509.121	1.244205
509.468	1.265118
509.815	1.237126
510.162	1.257686
510.509	1.218732
510.856	1.249771
511.203	1.247137
511.550	1.247145
511.897	1.258150
512.244	1.254283
512.591	1.236421
512.938	1.253951
513.284	1.253625
513.631	1.232591
513.978	1.197266
514.324	1.246952
514.671	1.232373
515.018	1.201130
515.364	1.224261
515.711	1.220185
516.057	1.196968
516.403	1.197360
516.750	1.187802
517.096	1.205040
517.443	1.193270
517.789	1.210509
518.135	1.181741
518.481	1.175218
518.827	1.193341
519.173	1.208112
519.519	1.181103
519.865	1.227116
520.211	1.200960
520.557	1.173999
520.903	1.153943
521.249	1.182624
521.595	1.174840
521.941	1.205040
522.287	1.176936
522.632	1.177170
522.978	1.125237
523.324	1.153404
523.669	1.178222
524.015	1.149981
524.360	1.156784
524.706	1.130271
525.051	1.153917
525.397	1.153698
525.742	1.157891
526.087	1.154452
526.433	1.110077
526.778	1.162370
527.123	1.144647
527.468	1.135534
527.813	1.162341
528.158	1.119329
528.504	1.130342
528.849	1.127366
529.193	1.114140
529.538	1.124223
529.883	1.134252
530.228	1.095650
530.573	1.115670
530.918	1.116830
531.263	1.108330
531.607	1.119613
531.952	1.113315
532.296	1.099068
532.641	1.097231
532.986	1.104803
533.330	1.112394
533.675	1.083577
534.019	1.087831
534.363	1.083320
534.708	1.089981
535.052	1.086599
535.396	1.086107
535.741	1.082017
536.085	1.071373
536.429	1.064232
536.773	1.046543
537.117	1.051568
537.461	1.058484
537.805	1.064114
538.149	1.043993
538.493	1.048482
538.837	1.026468
539.181	1.034555
539.524	1.045626
539.868	1.057127
540.212	1.049492
540.556	1.061905
540.899	1.042049
541.243	1.032131
541.586	1.042028
541.930	1.019722
542.273	0.996845
542.617	1.019530
542.960	1.004990
543.304	1.015360
543.647	1.002014
543.990	1.008680
544.333	0.998409
544.677	0.973585
545.020	1.003108
545.363	0.993599
545.706	1.003216
546.049	0.987110
546.392	0.964537
546.735	0.979208
547.078	0.968574
547.421	0.971405
547.764	0.979714
548.106	0.968389
548.449	0.982398
548.792	0.961888
549.135	0.954912
549.477	0.956819
549.820	0.954178
550.162	0.938782
550.505	0.941078
550.847	0.946256
551.190	0.933037
551.532	0.919594
551.875	0.925256
552.217	0.921693
552.559	0.907104
552.901	0.909843
553.244	0.902898
553.586	0.890990
553.928	0.892910
554.270	0.886336
554.612	0.897239
554.954	0.879742
555.296	0.881978
555.638	0.867613
555.980	0.869013
556.322	0.865755
556.663	0.855026
557.005	0.862535
557.347	0.858351
557.689	0.854722
558.030	0.861005
558.372	0.844022
558.713	0.838563
559.055	0.836157
559.396	0.826737
559.738	0.819050
560.079	0.807307
560.421	0.817331
560.762	0.809181
561.103	0.808652
561.444	0.803482
561.786	0.794810
562.127	0.787425
562.468	0.789923
562.809	0.787582
563.150	0.771596
563.491	0.773563
563.832	0.767909
564.173	0.761436
564.514	0.754361
564.855	0.754069
565.195	0.741297
565.536	0.747874
565.877	0.742861
566.218	0.734179
566.558	0.729095
566.899	0.723734
567.239	0.724356
567.580	0.718220
567.920	0.709064
568.261	0.711844
568.601	0.704506
568.941	0.694374
569.282	0.699259
569.622	0.691181
569.962	0.694573
570.302	0.682424
570.643	0.683767
570.983	0.680881
571.323	0.673553
571.663	0.675951
572.003	0.665178
572.343	0.663514
572.683	0.663237
573.022	0.654725
573.362	0.649582
573.702	0.648527
574.042	0.641207
574.381	0.639994
574.721	0.638678
575.061	0.633909
575.400	0.633365
575.740	0.629334
576.079	0.622672
576.419	0.608380
576.758	0.585378
577.097	0.568855
577.437	0.561625
577.776	0.554054
578.115	0.558079
578.454	0.561604
578.794	0.574469
579.133	0.582250
579.472	0.574249
579.811	0.547074
580.150	0.516689
580.489	0.487722
580.828	0.467243
581.167	0.452749
581.505	0.445767
581.844	0.460553
582.183	0.486043
582.522	0.523466
582.860	0.557920
583.199	0.560469
583.538	0.560834
583.876	0.555752
584.215	0.554411
584.553	0.551446
584.891	0.544389
585.230	0.544991
585.568	0.543405
585.906	0.539307
586.245	0.541626
586.583	0.536406
586.921	0.535154
587.259	0.536342
587.597	0.529967
587.935	0.530369
588.273	0.527528
588.611	0.529745
588.949	0.530152
589.287	0.521993
589.625	0.526528
589.963	0.521167
590.300	0.520490
590.638	0.520362
590.976	0.518199
591.313	0.517242
591.651	0.513141
591.989	0.511962
592.326	0.507195
592.664	0.503510
593.001	0.505113
593.338	0.504385
593.676	0.506788
594.013	0.498569
594.350	0.499006
594.687	0.496444
595.025	0.491682
595.362	0.493506
595.699	0.491384
596.036	0.489323
596.373	0.482674
596.710	0.491367
597.047	0.487448
597.384	0.487292
597.720	0.480650
598.057	0.482360
598.394	0.478806
598.731	0.477209
599.067	0.476058
599.404	0.476547
599.741	0.477304
600.077	0.470809
600.414	0.471730
600.750	0.471857
601.087	0.469730
601.423	0.470651
601.759	0.463737
602.096	0.461419
602.432	0.461227
602.768	0.457486
603.104	0.457157
603.440	0.457161
603.776	0.463352
604.112	0.455735
604.448	0.456436
604.784	0.449283
605.120	0.453831
