Date	2022年08月06日土曜日 12時58分22秒
Spectrometers	USB2+H05879
ダーク	使用
リファレンス	使用
積分時間[msec]	10
平均回数	1000
ｽﾑｰｼﾞﾝｸﾞ	0
Electrical Dark	USE
ピクセル数	2048
計測モード	吸光度
保存開始波長[nm]	190.664
保存終了波長[nm]	884.878
保存ﾋﾟｯﾁ波長[nm]	全波長

>>>>>>>>>> Data Start <<<<<<<<<<<<
190.664	0.000000
191.040	0.000000
191.415	0.000000
191.791	0.325149
192.166	0.000000
192.542	0.355343
192.917	0.387959
193.293	-0.003622
193.668	0.672961
194.044	0.317778
194.419	0.000000
194.794	-0.148384
195.170	-0.020865
195.545	0.000000
195.920	0.306387
196.296	0.000000
196.671	0.000000
197.046	1.256382
197.421	0.000000
197.796	-0.150245
198.171	0.000000
198.546	0.000000
198.922	0.000000
199.297	0.000000
199.672	0.000000
200.047	0.000000
200.422	0.000000
200.796	0.000000
201.171	-0.109447
201.546	0.000000
201.921	-0.806693
202.296	0.000000
202.671	0.363990
203.045	0.340646
203.420	0.045215
203.795	0.000000
204.170	-0.879286
204.544	0.000000
204.919	0.000000
205.294	0.000000
205.668	0.000000
206.043	0.302699
206.417	0.000000
206.792	0.000000
207.166	0.170166
207.541	0.000000
207.915	0.528837
208.289	0.000000
208.664	0.950699
209.038	0.377122
209.412	0.000000
209.787	0.414606
210.161	0.000000
210.535	0.000000
210.909	0.000000
211.284	0.000000
211.658	0.000000
212.032	0.000000
212.406	-1.027110
212.780	0.000000
213.154	1.073870
213.528	0.000000
213.902	0.000000
214.276	0.000000
214.650	0.441707
215.024	0.000000
215.398	0.369408
215.772	0.000000
216.145	0.000000
216.519	0.000000
216.893	0.370514
217.267	0.000000
217.640	0.000000
218.014	0.659407
218.388	0.000000
218.761	0.000000
219.135	0.000000
219.508	0.000000
219.882	0.371871
220.256	0.532741
220.629	0.000000
221.003	0.000000
221.376	0.045930
221.749	0.000000
222.123	0.000000
222.496	0.000000
222.869	0.000000
223.243	-0.144701
223.616	0.435499
223.989	0.052135
224.362	0.000000
224.736	-0.071795
225.109	1.021246
225.482	0.000000
225.855	0.203549
226.228	0.000000
226.601	-0.191729
226.974	0.000000
227.347	0.000000
227.720	0.000000
228.093	0.949867
228.466	0.000000
228.839	0.254492
229.212	0.000000
229.585	0.456526
229.957	0.000000
230.330	0.000000
230.703	0.000000
231.076	0.000000
231.448	0.000000
231.821	0.000000
232.194	0.000000
232.566	0.000000
232.939	0.000000
233.311	0.000000
233.684	0.000000
234.056	0.310892
234.429	0.725608
234.801	0.000000
235.174	0.079018
235.546	0.000000
235.918	0.000000
236.291	0.665954
236.663	0.000000
237.035	0.000000
237.408	0.498022
237.780	0.000000
238.152	0.938404
238.524	0.000000
238.896	0.000000
239.268	0.000000
239.641	0.365833
240.013	0.000000
240.385	0.622544
240.757	0.000000
241.129	1.348087
241.500	0.000000
241.872	0.485918
242.244	0.427839
242.616	0.000000
242.988	0.033103
243.360	0.331955
243.731	0.835704
244.103	0.000000
244.475	0.000000
244.847	0.000000
245.218	0.609610
245.590	0.000000
245.961	0.000000
246.333	0.000000
246.705	0.000000
247.076	0.000000
247.448	0.681851
247.819	-0.171711
248.190	1.730341
248.562	0.283099
248.933	0.238564
249.305	1.123058
249.676	0.000000
250.047	1.829444
250.418	0.000000
250.790	1.724037
251.161	0.000000
251.532	1.106126
251.903	0.464336
252.274	0.512608
252.645	0.203594
253.016	0.709730
253.387	1.262357
253.758	0.864217
254.129	0.000000
254.500	0.000000
254.871	0.000000
255.242	0.000000
255.613	0.000000
255.984	0.000000
256.355	0.000000
256.725	0.391918
257.096	0.083909
257.467	0.904691
257.838	0.799797
258.208	0.000000
258.579	0.853211
258.949	0.000000
259.320	0.000000
259.690	0.000000
260.061	0.377098
260.431	0.000000
260.802	1.213934
261.172	0.887031
261.543	-0.023705
261.913	0.592126
262.283	0.000000
262.654	0.000000
263.024	0.463369
263.394	0.000000
263.764	1.333101
264.135	1.010025
264.505	0.000000
264.875	-0.246656
265.245	0.000000
265.615	0.000000
265.985	0.000000
266.355	0.000000
266.725	0.000000
267.095	0.061135
267.465	0.478940
267.835	0.000000
268.205	0.000000
268.575	0.156820
268.944	0.000000
269.314	0.000000
269.684	0.315620
270.054	0.000000
270.423	0.000000
270.793	0.536856
271.163	0.000000
271.532	0.422357
271.902	0.376367
272.271	0.000000
272.641	0.000000
273.010	0.000000
273.380	0.000000
273.749	0.000000
274.119	0.114636
274.488	0.538222
274.857	0.104692
275.227	0.000000
275.596	0.000000
275.965	0.000000
276.335	0.461762
276.704	0.579150
277.073	0.000000
277.442	0.000000
277.811	0.000000
278.180	1.196259
278.549	0.000000
278.918	0.000000
279.287	-0.117647
279.656	0.000000
280.025	0.000000
280.394	0.000000
280.763	0.000000
281.132	0.000000
281.501	1.390719
281.869	0.706257
282.238	1.018076
282.607	0.584753
282.976	0.000000
283.344	0.000000
283.713	0.000000
284.081	0.000000
284.450	0.000000
284.819	0.621882
285.187	0.914152
285.556	0.000000
285.924	0.000000
286.292	0.000000
286.661	0.000000
287.029	0.000000
287.398	0.539199
287.766	0.610992
288.134	0.906096
288.502	0.305380
288.871	0.000000
289.239	0.000000
289.607	0.479753
289.975	0.000000
290.343	0.000000
290.711	0.000000
291.079	0.568255
291.447	0.278813
291.815	0.312695
292.183	0.560862
292.551	0.000000
292.919	0.516758
293.287	0.000000
293.655	0.000000
294.022	-0.203373
294.390	0.534301
294.758	1.167648
295.126	1.486640
295.493	0.472784
295.861	0.000000
296.229	0.650766
296.596	0.000000
296.964	0.368191
297.331	0.328962
297.699	0.000000
298.066	0.537530
298.434	0.000000
298.801	0.000000
299.168	0.900693
299.536	0.000000
299.903	0.000000
300.270	0.000000
300.638	2.094801
301.005	1.352108
301.372	0.408620
301.739	1.082886
302.106	0.983969
302.473	0.540542
302.840	0.000000
303.207	0.000000
303.574	0.000000
303.941	0.554567
304.308	0.669740
304.675	0.612647
305.042	1.260534
305.409	0.829432
305.776	1.462665
306.143	0.000000
306.509	0.000000
306.876	0.000000
307.243	0.000000
307.610	0.000000
307.976	0.000000
308.343	0.000000
308.709	0.689101
309.076	0.000000
309.442	0.951810
309.809	0.000000
310.175	0.000000
310.542	1.321415
310.908	0.000000
311.275	1.018402
311.641	0.000000
312.007	0.000000
312.373	2.268129
312.740	1.254108
313.106	1.281032
313.472	0.000000
313.838	0.000000
314.204	0.000000
314.570	2.633036
314.936	0.000000
315.302	0.000000
315.668	0.000000
316.034	0.000000
316.400	1.656128
316.766	0.000000
317.132	0.000000
317.498	0.000000
317.864	0.000000
318.230	0.000000
318.595	2.038199
318.961	2.021880
319.327	1.472719
319.692	1.920380
320.058	0.000000
320.424	2.615699
320.789	0.000000
321.155	2.101268
321.520	0.000000
321.886	1.766338
322.251	0.000000
322.616	0.000000
322.982	1.963049
323.347	2.165282
323.712	2.002396
324.078	4.108945
324.443	2.660745
324.808	0.000000
325.173	0.000000
325.539	2.022818
325.904	2.120878
326.269	2.402188
326.634	0.000000
326.999	0.000000
327.364	0.000000
327.729	0.000000
328.094	2.428914
328.459	0.000000
328.823	2.306210
329.188	0.000000
329.553	2.696401
329.918	0.000000
330.283	2.658810
330.647	2.222589
331.012	0.000000
331.377	0.000000
331.741	2.194874
332.106	3.319069
332.470	2.282441
332.835	2.159431
333.199	2.730312
333.564	0.000000
333.928	0.000000
334.293	0.000000
334.657	2.886594
335.021	0.000000
335.386	2.890151
335.750	3.476731
336.114	2.927780
336.478	0.000000
336.843	0.000000
337.207	2.249245
337.571	2.814115
337.935	2.532907
338.299	2.243903
338.663	2.765830
339.027	2.316941
339.391	2.996400
339.755	3.872218
340.119	2.776412
340.483	2.599975
340.846	0.000000
341.210	2.459107
341.574	2.875198
341.938	2.382713
342.301	2.119641
342.665	2.322550
343.029	0.000000
343.392	2.251910
343.756	2.608591
344.119	4.382916
344.483	3.227054
344.846	2.338884
345.210	2.699799
345.573	2.802417
345.937	2.988491
346.300	2.705888
346.663	3.601577
347.027	2.819119
347.390	2.416154
347.753	2.638356
348.116	0.000000
348.479	2.314707
348.843	2.483424
349.206	2.775166
349.569	0.000000
349.932	2.226874
350.295	2.613269
350.658	3.285003
351.021	2.666197
351.383	2.662490
351.746	2.783193
352.109	2.575382
352.472	2.241077
352.835	2.599070
353.197	3.003081
353.560	2.335241
353.923	2.442225
354.285	2.071135
354.648	2.758034
355.011	0.000000
355.373	2.506190
355.736	2.369869
356.098	2.513931
356.461	2.559066
356.823	2.440087
357.185	2.276706
357.548	2.594109
357.910	2.306808
358.272	2.392278
358.635	2.274537
358.997	2.578796
359.359	2.281597
359.721	2.400833
360.083	2.193072
360.445	2.311562
360.807	2.524364
361.169	2.963512
361.531	2.583334
361.893	2.317683
362.255	2.735943
362.617	2.278954
362.979	2.261422
363.341	3.096081
363.703	2.454715
364.064	2.217854
364.426	2.332202
364.788	3.422184
365.149	2.989739
365.511	2.401003
365.873	2.511914
366.234	2.432376
366.596	2.227964
366.957	2.393319
367.319	2.454259
367.680	2.786643
368.042	2.608537
368.403	2.334809
368.764	2.274328
369.126	2.304910
369.487	2.236604
369.848	3.606233
370.209	2.386194
370.570	2.662610
370.931	2.258814
371.293	2.430980
371.654	2.265276
372.015	2.631711
372.376	2.370575
372.737	3.212978
373.098	2.395009
373.458	2.202653
373.819	2.234362
374.180	2.741411
374.541	2.584051
374.902	2.759634
375.263	3.699700
375.623	2.410354
375.984	2.366404
376.345	2.386085
376.705	2.179505
377.066	2.493924
377.426	2.099532
377.787	2.964110
378.147	2.715506
378.508	2.989091
378.868	2.407045
379.228	2.949220
379.589	2.576106
379.949	2.433219
380.309	0.000000
380.670	2.240717
381.030	2.413162
381.390	2.888230
381.750	2.156195
382.110	2.389765
382.470	2.926367
382.830	2.474565
383.190	3.020243
383.550	2.522112
383.910	2.843512
384.270	2.966975
384.630	2.376958
384.990	2.304894
385.350	2.619847
385.709	2.768011
386.069	3.243637
386.429	2.284012
386.788	2.328423
387.148	0.000000
387.508	2.461459
387.867	0.000000
388.227	2.482771
388.586	2.720711
388.946	2.464655
389.305	2.482942
389.665	2.520701
390.024	2.437796
390.383	2.269327
390.743	2.402040
391.102	2.909541
391.461	2.832953
391.820	2.368570
392.179	2.381514
392.539	2.766940
392.898	2.515468
393.257	2.333365
393.616	2.502889
393.975	2.325248
394.334	2.490467
394.693	2.418595
395.051	2.601110
395.410	2.489658
395.769	2.281045
396.128	0.000000
396.487	2.480895
396.845	2.900421
397.204	2.323835
397.563	2.437913
397.921	2.579843
398.280	2.849795
398.638	2.414098
398.997	2.845385
399.355	2.732369
399.714	2.473985
400.072	2.717026
400.431	3.717835
400.789	2.133680
401.147	2.332268
401.506	2.234493
401.864	2.531978
402.222	2.759341
402.580	0.000000
402.938	2.423161
403.297	2.235006
403.655	2.728126
404.013	2.312656
404.371	2.379854
404.729	2.484669
405.087	2.519183
405.444	2.276484
405.802	2.260405
406.160	2.524755
406.518	2.313035
406.876	2.654249
407.233	2.689868
407.591	2.445200
407.949	2.426946
408.306	3.733153
408.664	2.550463
409.022	2.544868
409.379	2.643296
409.737	2.118295
410.094	2.295243
410.451	2.442174
410.809	2.926496
411.166	2.293354
411.523	2.366353
411.881	2.263699
412.238	2.261987
412.595	2.263505
412.952	2.148090
413.310	2.356924
413.667	2.165062
414.024	2.278786
414.381	2.252148
414.738	2.286188
415.095	2.750328
415.452	2.301323
415.809	2.931492
416.165	2.509221
416.522	2.299793
416.879	2.711035
417.236	1.996112
417.593	2.193025
417.949	2.119169
418.306	2.218823
418.663	2.184124
419.019	2.197198
419.376	2.532095
419.732	2.390985
420.089	2.469568
420.445	2.130305
420.802	2.398964
421.158	3.137146
421.514	2.272485
421.871	2.365043
422.227	2.178773
422.583	2.310156
422.939	2.478946
423.295	2.397406
423.652	2.423784
424.008	2.378588
424.364	2.272032
424.720	2.492547
425.076	2.175196
425.432	2.160100
425.788	2.123709
426.143	2.633037
426.499	2.197529
426.855	2.375853
427.211	2.168851
427.567	2.154436
427.922	2.266221
428.278	2.379986
428.634	2.408617
428.989	2.191219
429.345	2.209820
429.700	2.203159
430.056	2.075859
430.411	2.574864
430.767	2.091290
431.122	2.272613
431.478	2.622730
431.833	2.179050
432.188	2.204473
432.543	2.455249
432.899	2.120570
433.254	2.282820
433.609	2.230381
433.964	2.216276
434.319	2.163028
434.674	2.093255
435.029	2.325169
435.384	2.355877
435.739	2.099840
436.094	2.145030
436.449	2.386193
436.804	2.202177
437.158	1.995267
437.513	2.333369
437.868	2.325805
438.223	2.418140
438.577	2.165691
438.932	2.224923
439.287	2.073058
439.641	2.247771
439.996	2.166888
440.350	2.081107
440.704	2.246559
441.059	2.083796
441.413	2.001068
441.768	2.051390
442.122	2.032677
442.476	2.023802
442.830	2.208186
443.185	2.215270
443.539	2.133205
443.893	2.071653
444.247	2.065042
444.601	1.944680
444.955	2.080881
445.309	1.939474
445.663	1.992084
446.017	1.918927
446.371	1.993253
446.724	1.916992
447.078	2.028743
447.432	1.967964
447.786	2.048661
448.139	2.119908
448.493	1.978463
448.847	1.960570
449.200	1.976031
449.554	2.060475
449.907	1.878693
450.261	2.136346
450.614	1.958699
450.968	1.947381
451.321	1.929145
451.674	2.003979
452.027	1.923702
452.381	1.882804
452.734	1.943948
453.087	1.952235
453.440	1.894144
453.793	1.833245
454.146	1.874975
454.499	1.847651
454.852	1.842962
455.205	1.893339
455.558	1.859240
455.911	1.849921
456.264	1.914364
456.617	1.829162
456.970	1.918183
457.322	1.938330
457.675	1.992420
458.028	1.896444
458.380	1.873738
458.733	1.847936
459.086	1.805919
459.438	1.950508
459.791	1.949791
460.143	1.844817
460.496	1.852467
460.848	1.912534
461.200	1.759262
461.553	1.756277
461.905	1.770157
462.257	1.945641
462.609	1.763568
462.961	1.779606
463.314	1.819836
463.666	1.802391
464.018	1.746550
464.370	1.801569
464.722	1.745970
465.074	1.763815
465.426	1.778219
465.777	1.753972
466.129	1.732749
466.481	1.763352
466.833	1.707155
467.184	1.758399
467.536	1.737676
467.888	1.719423
468.239	1.743963
468.591	1.772411
468.943	1.734269
469.294	1.835852
469.646	1.662731
469.997	1.734548
470.348	1.787065
470.700	1.760942
471.051	1.729118
471.402	1.663819
471.754	1.794396
472.105	1.758328
472.456	1.692915
472.807	1.628635
473.158	1.695291
473.509	1.572134
473.860	1.689889
474.211	1.672747
474.562	1.664758
474.913	1.658269
475.264	1.627125
475.615	1.682107
475.966	1.637272
476.316	1.672998
476.667	1.662989
477.018	1.646355
477.368	1.652803
477.719	1.633520
478.070	1.625321
478.420	1.583869
478.771	1.660232
479.121	1.676487
479.472	1.560338
479.822	1.616685
480.172	1.610749
480.523	1.610145
480.873	1.583559
481.223	1.593959
481.573	1.610991
481.924	1.596714
482.274	1.579503
482.624	1.605892
482.974	1.585629
483.324	1.599214
483.674	1.575733
484.024	1.606049
484.374	1.587637
484.724	1.565095
485.073	1.552174
485.423	1.560945
485.773	1.532841
486.123	1.539423
486.472	1.525134
486.822	1.549503
487.172	1.529283
487.521	1.515179
487.871	1.528777
488.220	1.538134
488.570	1.529711
488.919	1.516057
489.268	1.503139
489.618	1.512381
489.967	1.517755
490.316	1.503445
490.666	1.512326
491.015	1.507449
491.364	1.519079
491.713	1.501031
492.062	1.526586
492.411	1.488837
492.760	1.488458
493.109	1.481822
493.458	1.520797
493.807	1.465156
494.156	1.476118
494.505	1.483070
494.853	1.468277
495.202	1.474541
495.551	1.459278
495.900	1.465808
496.248	1.458286
496.597	1.447784
496.945	1.478614
497.294	1.450018
497.642	1.448257
497.991	1.461291
498.339	1.454184
498.688	1.432839
499.036	1.455862
499.384	1.428826
499.732	1.433782
500.081	1.451168
500.429	1.460012
500.777	1.450907
501.125	1.425392
501.473	1.426306
501.821	1.454692
502.169	1.417503
502.517	1.392580
502.865	1.417730
503.213	1.439059
503.561	1.417050
503.908	1.402217
504.256	1.383006
504.604	1.396283
504.952	1.387044
505.299	1.413859
505.647	1.401694
505.994	1.370107
506.342	1.403619
506.689	1.366090
507.037	1.384398
507.384	1.375708
507.732	1.384668
508.079	1.358033
508.426	1.361213
508.774	1.357201
509.121	1.380877
509.468	1.356349
509.815	1.362324
510.162	1.369765
510.509	1.367045
510.856	1.368864
511.203	1.341319
511.550	1.353860
511.897	1.367320
512.244	1.367757
512.591	1.330483
512.938	1.333128
513.284	1.322935
513.631	1.358960
513.978	1.326397
514.324	1.353357
514.671	1.339807
515.018	1.337796
515.364	1.332222
515.711	1.307253
516.057	1.332016
516.403	1.325174
516.750	1.313977
517.096	1.319203
517.443	1.297017
517.789	1.313257
518.135	1.302250
518.481	1.319289
518.827	1.304178
519.173	1.291093
519.519	1.289594
519.865	1.282818
520.211	1.274223
520.557	1.264439
520.903	1.305099
521.249	1.306959
521.595	1.327254
521.941	1.289322
522.287	1.303925
522.632	1.277441
522.978	1.294703
523.324	1.256217
523.669	1.280085
524.015	1.269851
524.360	1.261316
524.706	1.245948
525.051	1.250163
525.397	1.273669
525.742	1.270248
526.087	1.242306
526.433	1.283914
526.778	1.261921
527.123	1.259853
527.468	1.259496
527.813	1.230029
528.158	1.262774
528.504	1.260267
528.849	1.224172
529.193	1.242621
529.538	1.252037
529.883	1.241557
530.228	1.237132
530.573	1.226772
530.918	1.230068
531.263	1.235557
531.607	1.204235
531.952	1.221684
532.296	1.223704
532.641	1.242770
532.986	1.188348
533.330	1.195284
533.675	1.194896
534.019	1.193522
534.363	1.203119
534.708	1.192797
535.052	1.189662
535.396	1.194997
535.741	1.182248
536.085	1.194752
536.429	1.177075
536.773	1.193859
537.117	1.178859
537.461	1.195462
537.805	1.153275
538.149	1.166642
538.493	1.153371
538.837	1.171570
539.181	1.183866
539.524	1.167460
539.868	1.143793
540.212	1.160260
540.556	1.153232
540.899	1.166169
541.243	1.140876
541.586	1.146020
541.930	1.150943
542.273	1.148309
542.617	1.141750
542.960	1.136440
543.304	1.131096
543.647	1.129812
543.990	1.118611
544.333	1.125109
544.677	1.115030
545.020	1.134383
545.363	1.127718
545.706	1.126306
546.049	1.107377
546.392	1.101884
546.735	1.090028
547.078	1.107768
547.421	1.093054
547.764	1.091152
548.106	1.070918
548.449	1.074795
548.792	1.077348
549.135	1.065063
549.477	1.070678
549.820	1.073417
550.162	1.067267
550.505	1.066638
550.847	1.066831
551.190	1.057276
551.532	1.053935
551.875	1.031758
552.217	1.038955
552.559	1.021452
552.901	1.030638
553.244	1.034305
553.586	1.038044
553.928	1.025716
554.270	1.022251
554.612	1.014093
554.954	1.005873
555.296	1.009141
555.638	0.999411
555.980	1.012704
556.322	0.982179
556.663	0.992968
557.005	1.002938
557.347	0.988554
557.689	0.972416
558.030	0.980130
558.372	0.974446
558.713	0.966826
559.055	0.985467
559.396	0.961254
559.738	0.958213
560.079	0.955404
560.421	0.955715
560.762	0.949956
561.103	0.939238
561.444	0.926992
561.786	0.933867
562.127	0.932307
562.468	0.933254
562.809	0.928869
563.150	0.918634
563.491	0.913806
563.832	0.909541
564.173	0.897822
564.514	0.885385
564.855	0.892094
565.195	0.894475
565.536	0.888541
565.877	0.887901
566.218	0.888234
566.558	0.880470
566.899	0.872242
567.239	0.881024
567.580	0.875894
567.920	0.869415
568.261	0.854413
568.601	0.860132
568.941	0.859434
569.282	0.854515
569.622	0.848673
569.962	0.845960
570.302	0.838452
570.643	0.837981
570.983	0.828243
571.323	0.823313
571.663	0.825964
572.003	0.816099
572.343	0.816659
572.683	0.806334
573.022	0.795466
573.362	0.779200
573.702	0.753194
574.042	0.729789
574.381	0.714861
574.721	0.713126
575.061	0.708193
575.400	0.707885
575.740	0.707128
576.079	0.704653
576.419	0.690101
576.758	0.662755
577.097	0.634707
577.437	0.616015
577.776	0.607862
578.115	0.606606
578.454	0.602749
578.794	0.613002
579.133	0.628343
579.472	0.639231
579.811	0.639357
580.150	0.615615
580.489	0.576156
580.828	0.543738
581.167	0.519281
581.505	0.502568
581.844	0.496705
582.183	0.504435
582.522	0.539286
582.860	0.582385
583.199	0.624178
583.538	0.655111
583.876	0.664713
584.215	0.654016
584.553	0.634371
584.891	0.614596
585.230	0.607079
585.568	0.606319
585.906	0.612076
586.245	0.623671
586.583	0.634741
586.921	0.643674
587.259	0.647109
587.597	0.645923
587.935	0.653551
588.273	0.669493
588.611	0.688801
588.949	0.701161
589.287	0.702805
589.625	0.702369
589.963	0.700763
590.300	0.701577
590.638	0.700368
590.976	0.700181
591.313	0.696281
591.651	0.695499
591.989	0.694560
592.326	0.689527
592.664	0.685111
593.001	0.683221
593.338	0.682029
593.676	0.678214
594.013	0.678975
594.350	0.680500
594.687	0.676728
595.025	0.674139
595.362	0.679054
595.699	0.674074
596.036	0.674085
596.373	0.673290
596.710	0.675147
597.047	0.677014
597.384	0.667849
597.720	0.671061
598.057	0.669377
598.394	0.668592
598.731	0.668020
599.067	0.665727
599.404	0.663106
599.741	0.664630
600.077	0.658620
600.414	0.659999
600.750	0.659296
601.087	0.658488
601.423	0.658092
601.759	0.652792
602.096	0.650686
602.432	0.650804
602.768	0.651888
603.104	0.647131
603.440	0.648572
603.776	0.650064
604.112	0.648744
604.448	0.652229
604.784	0.645311
605.120	0.646162
