Date	2023年05月19日金曜日 04時47分40秒
Spectrometers	USB2+H05879
ダーク	使用
リファレンス	使用
積分時間[usec]	1800
平均回数	10000
ｽﾑｰｼﾞﾝｸﾞ	0
Electrical Dark	USE
ピクセル数	2048
計測モード	吸光度
保存開始波長[nm]	190.664
保存終了波長[nm]	884.878
保存ﾋﾟｯﾁ波長[nm]	全波長

>>>>>>>>>> Data Start <<<<<<<<<<<<
190.664	0.000000
191.040	0.000000
191.415	0.000000
191.791	0.142788
192.166	1.937299
192.542	0.000000
192.917	-0.236360
193.293	0.000000
193.668	0.524658
194.044	0.000000
194.419	0.227202
194.794	0.054556
195.170	0.000000
195.545	-0.452573
195.920	0.271757
196.296	0.000000
196.671	0.000000
197.046	0.000000
197.421	0.058827
197.796	0.000000
198.171	0.636429
198.546	0.490224
198.922	0.394973
199.297	-0.000512
199.672	0.000000
200.047	0.530870
200.422	1.818273
200.796	0.000000
201.171	0.406116
201.546	0.394463
201.921	0.000000
202.296	0.000000
202.671	0.340698
203.045	0.430973
203.420	1.654607
203.795	0.624230
204.170	0.797112
204.544	0.670074
204.919	0.562905
205.294	0.423611
205.668	0.000000
206.043	0.000000
206.417	0.979958
206.792	0.202435
207.166	0.454332
207.541	0.000000
207.915	0.605113
208.289	0.679922
208.664	1.262082
209.038	0.000000
209.412	0.550708
209.787	0.453121
210.161	0.216105
210.535	0.000000
210.909	0.622081
211.284	0.940111
211.658	0.000000
212.032	0.499920
212.406	0.709995
212.780	0.492177
213.154	0.000000
213.528	1.334697
213.902	0.396188
214.276	0.000000
214.650	0.598277
215.024	0.000000
215.398	1.096247
215.772	0.446158
216.145	0.741289
216.519	0.000000
216.893	0.000000
217.267	0.000000
217.640	0.416807
218.014	0.000000
218.388	0.000000
218.761	0.000000
219.135	0.644750
219.508	0.000000
219.882	1.654272
220.256	0.000000
220.629	2.089909
221.003	0.774217
221.376	0.088812
221.749	0.540340
222.123	0.365760
222.496	0.389512
222.869	0.000000
223.243	1.316298
223.616	0.497157
223.989	0.363469
224.362	2.598571
224.736	0.248135
225.109	0.000000
225.482	0.000000
225.855	0.789860
226.228	0.000000
226.601	1.053890
226.974	0.904485
227.347	0.506070
227.720	0.000000
228.093	0.698454
228.466	0.895839
228.839	0.384533
229.212	0.000000
229.585	0.359594
229.957	0.450724
230.330	1.020436
230.703	0.971517
231.076	0.000000
231.448	1.274151
231.821	0.122169
232.194	0.402714
232.566	-0.091971
232.939	0.720052
233.311	0.000000
233.684	1.229349
234.056	1.041713
234.429	0.476662
234.801	0.632336
235.174	0.592027
235.546	1.652400
235.918	0.428348
236.291	0.620570
236.663	0.568490
237.035	0.506332
237.408	0.762061
237.780	0.280467
238.152	0.890651
238.524	0.000000
238.896	0.442050
239.268	0.929925
239.641	0.000000
240.013	1.930274
240.385	0.485251
240.757	0.573344
241.129	0.362918
241.500	0.447334
241.872	0.737802
242.244	0.480404
242.616	0.773933
242.988	0.738526
243.360	0.845651
243.731	0.234018
244.103	0.000000
244.475	0.000000
244.847	0.903025
245.218	1.001487
245.590	0.000000
245.961	0.000000
246.333	0.337449
246.705	0.655274
247.076	0.000000
247.448	0.728827
247.819	0.211631
248.190	0.431013
248.562	0.451312
248.933	0.746135
249.305	1.659028
249.676	0.000000
250.047	0.000000
250.418	0.000000
250.790	0.000000
251.161	0.369900
251.532	0.000000
251.903	0.000000
252.274	0.945783
252.645	0.444574
253.016	0.351991
253.387	0.000000
253.758	0.439425
254.129	0.000000
254.500	0.560800
254.871	0.816837
255.242	0.571220
255.613	0.529536
255.984	0.411118
256.355	0.620201
256.725	0.523405
257.096	0.471888
257.467	0.437455
257.838	0.000000
258.208	0.000000
258.579	0.352016
258.949	0.000000
259.320	0.663621
259.690	0.393005
260.061	0.427400
260.431	0.652414
260.802	0.000000
261.172	0.762385
261.543	1.122550
261.913	0.437908
262.283	1.773927
262.654	0.000000
263.024	0.000000
263.394	0.642350
263.764	0.365147
264.135	0.000000
264.505	1.717995
264.875	0.902395
265.245	0.699454
265.615	0.709277
265.985	0.468634
266.355	0.455090
266.725	0.430422
267.095	0.859252
267.465	0.518279
267.835	0.425410
268.205	0.561640
268.575	1.155567
268.944	0.934692
269.314	0.567595
269.684	0.000000
270.054	0.615030
270.423	0.000000
270.793	0.638828
271.163	0.347073
271.532	0.565983
271.902	1.043067
272.271	0.469777
272.641	0.949670
273.010	0.623395
273.380	0.000000
273.749	1.000447
274.119	0.878712
274.488	0.000000
274.857	0.872020
275.227	1.607606
275.596	1.630784
275.965	0.528129
276.335	0.489681
276.704	0.521047
277.073	0.412041
277.442	0.517227
277.811	0.861570
278.180	0.000000
278.549	0.767947
278.918	0.688701
279.287	0.581729
279.656	1.580079
280.025	0.549062
280.394	0.000000
280.763	1.078327
281.132	0.414482
281.501	0.000000
281.869	1.193432
282.238	0.000000
282.607	0.000000
282.976	0.000000
283.344	0.766691
283.713	0.755377
284.081	0.000000
284.450	0.000000
284.819	0.000000
285.187	0.932676
285.556	0.000000
285.924	0.458508
286.292	0.000000
286.661	0.000000
287.029	0.713927
287.398	0.672689
287.766	0.569892
288.134	1.220643
288.502	0.932641
288.871	0.000000
289.239	0.861611
289.607	1.133428
289.975	0.576679
290.343	0.000000
290.711	0.675802
291.079	0.000000
291.447	0.742630
291.815	0.778937
292.183	0.000000
292.551	0.872383
292.919	0.000000
293.287	0.000000
293.655	0.701595
294.022	1.955825
294.390	0.000000
294.758	0.000000
295.126	0.000000
295.493	0.839341
295.861	0.695410
296.229	1.283296
296.596	0.752047
296.964	2.440100
297.331	0.997102
297.699	0.802547
298.066	0.708418
298.434	0.879150
298.801	1.089843
299.168	0.000000
299.536	1.176007
299.903	1.618526
300.270	1.715150
300.638	1.527947
301.005	2.509759
301.372	1.301903
301.739	1.418823
302.106	1.289839
302.473	1.275567
302.840	1.339250
303.207	1.592102
303.574	0.000000
303.941	0.000000
304.308	1.692764
304.675	2.553021
305.042	2.141723
305.409	1.434615
305.776	2.087123
306.143	1.899063
306.509	1.718514
306.876	1.793130
307.243	1.667236
307.610	1.604246
307.976	1.862594
308.343	1.902710
308.709	1.698497
309.076	0.000000
309.442	3.265917
309.809	1.996488
310.175	2.402131
310.542	2.004434
310.908	1.745574
311.275	1.684052
311.641	2.254195
312.007	1.865923
312.373	2.075845
312.740	2.390518
313.106	2.334374
313.472	0.000000
313.838	2.296379
314.204	4.201389
314.570	2.164215
314.936	2.116635
315.302	2.137690
315.668	2.377115
316.034	3.955551
316.400	2.175475
316.766	0.000000
317.132	2.306230
317.498	2.348761
317.864	2.507832
318.230	2.270518
318.595	2.450339
318.961	2.277395
319.327	3.187473
319.692	2.371075
320.058	2.206778
320.424	2.299777
320.789	0.000000
321.155	2.365704
321.520	2.448361
321.886	2.172791
322.251	2.191953
322.616	2.868398
322.982	2.521822
323.347	2.842779
323.712	2.639958
324.078	2.302417
324.443	2.204574
324.808	2.830199
325.173	2.269507
325.539	2.222703
325.904	2.371013
326.269	2.639364
326.634	2.567608
326.999	2.250130
327.364	2.466195
327.729	2.416330
328.094	2.512983
328.459	2.909998
328.823	2.309966
329.188	2.315876
329.553	2.596365
329.918	2.357562
330.283	2.260572
330.647	2.322495
331.012	2.456277
331.377	2.471265
331.741	2.943705
332.106	2.367547
332.470	2.775031
332.835	2.409073
333.199	2.419527
333.564	2.415672
333.928	2.526363
334.293	2.448642
334.657	2.532442
335.021	2.341574
335.386	2.272785
335.750	2.168422
336.114	2.343699
336.478	2.327608
336.843	2.395790
337.207	2.325348
337.571	2.397696
337.935	2.337866
338.299	2.416809
338.663	2.272483
339.027	2.479556
339.391	2.311008
339.755	2.336546
340.119	2.310261
340.483	2.260292
340.846	2.475127
341.210	2.276696
341.574	2.282982
341.938	2.465484
342.301	2.349577
342.665	2.316456
343.029	2.257676
343.392	2.317955
343.756	2.223011
344.119	2.353160
344.483	2.240182
344.846	2.399514
345.210	2.256126
345.573	2.329172
345.937	2.364139
346.300	2.351973
346.663	2.252170
347.027	2.300668
347.390	2.327194
347.753	2.305144
348.116	2.338339
348.479	2.357873
348.843	2.236904
349.206	2.335046
349.569	2.355088
349.932	2.341099
350.295	2.430267
350.658	2.350646
351.021	2.180931
351.383	2.379563
351.746	2.311547
352.109	2.341520
352.472	2.375063
352.835	2.249707
353.197	2.403975
353.560	2.340567
353.923	2.238980
354.285	2.251442
354.648	2.325635
355.011	2.328637
355.373	2.351077
355.736	2.276467
356.098	2.278337
356.461	2.237909
356.823	2.276282
357.185	2.382777
357.548	2.302958
357.910	2.318715
358.272	2.274891
358.635	2.314224
358.997	2.303180
359.359	2.295380
359.721	2.280908
360.083	2.313747
360.445	2.331402
360.807	2.371478
361.169	2.219718
361.531	2.280389
361.893	2.312813
362.255	2.363361
362.617	2.413942
362.979	2.336696
363.341	2.195932
363.703	2.351522
364.064	2.267719
364.426	2.217032
364.788	2.332516
365.149	2.220129
365.511	2.347535
365.873	2.249640
366.234	2.309646
366.596	2.353369
366.957	2.265729
367.319	2.310558
367.680	2.293597
368.042	2.371908
368.403	2.370200
368.764	2.393922
369.126	2.325725
369.487	2.233701
369.848	2.331791
370.209	2.374811
370.570	2.224148
370.931	2.242214
371.293	2.322450
371.654	2.275542
372.015	2.226347
372.376	2.304469
372.737	2.237803
373.098	2.251435
373.458	2.277834
373.819	2.269280
374.180	2.330254
374.541	2.226750
374.902	2.286082
375.263	2.283209
375.623	2.238621
375.984	2.220497
376.345	2.222288
376.705	2.307774
377.066	2.334852
377.426	2.418030
377.787	2.363448
378.147	2.287830
378.508	2.194274
378.868	2.234957
379.228	2.338192
379.589	2.227945
379.949	2.286092
380.309	2.259980
380.670	2.299671
381.030	2.329973
381.390	2.362424
381.750	2.392842
382.110	2.292859
382.470	2.268715
382.830	2.252069
383.190	2.332884
383.550	2.220096
383.910	2.315613
384.270	2.285254
384.630	2.262884
384.990	2.228405
385.350	2.311396
385.709	2.220088
386.069	2.228080
386.429	2.366628
386.788	2.273708
387.148	2.260283
387.508	2.362007
387.867	2.207971
388.227	2.263221
388.586	2.256035
388.946	2.352312
389.305	2.286223
389.665	2.233083
390.024	2.293388
390.383	2.266740
390.743	2.251196
391.102	2.371035
391.461	2.286030
391.820	2.190559
392.179	2.253309
392.539	2.314889
392.898	2.253495
393.257	2.272497
393.616	2.208785
393.975	2.171294
394.334	2.285867
394.693	2.296046
395.051	2.272771
395.410	2.265203
395.769	2.258598
396.128	2.225904
396.487	2.188978
396.845	2.296492
397.204	2.260252
397.563	2.266460
397.921	2.373011
398.280	2.243486
398.638	2.244619
398.997	2.347091
399.355	2.291224
399.714	2.184048
400.072	2.250524
400.431	2.205263
400.789	2.215897
401.147	2.204281
401.506	2.341560
401.864	2.247118
402.222	2.229713
402.580	2.211512
402.938	2.205322
403.297	2.219713
403.655	2.206012
404.013	2.210451
404.371	2.151173
404.729	2.189174
405.087	2.178207
405.444	2.219501
405.802	2.180657
406.160	2.222721
406.518	2.232284
406.876	2.274493
407.233	2.244187
407.591	2.321590
407.949	2.213488
408.306	2.187261
408.664	2.160358
409.022	2.187611
409.379	2.232183
409.737	2.137675
410.094	2.106352
410.451	2.107051
410.809	2.207991
411.166	2.218606
411.523	2.186442
411.881	2.110732
412.238	2.135627
412.595	2.130672
412.952	2.179218
413.310	2.142857
413.667	2.192533
414.024	2.137307
414.381	2.194380
414.738	2.115236
415.095	2.102892
415.452	2.097232
415.809	2.120826
416.165	2.156574
416.522	2.059281
416.879	2.095403
417.236	2.069433
417.593	2.019196
417.949	2.074846
418.306	2.105207
418.663	2.114643
419.019	2.073720
419.376	2.048502
419.732	2.084684
420.089	2.097298
420.445	2.046935
420.802	2.045245
421.158	2.012585
421.514	2.041387
421.871	2.055086
422.227	2.085165
422.583	2.054225
422.939	2.057956
423.295	2.054444
423.652	2.041651
424.008	2.032999
424.364	2.013520
424.720	1.978052
425.076	1.985203
425.432	2.030311
425.788	1.981511
426.143	1.985774
426.499	2.007423
426.855	2.025841
427.211	1.970027
427.567	1.985792
427.922	1.984340
428.278	1.978769
428.634	1.935910
428.989	1.963707
429.345	1.968178
429.700	1.975509
430.056	1.913566
430.411	1.959949
430.767	1.958118
431.122	1.930763
431.478	1.924989
431.833	1.942222
432.188	1.905427
432.543	1.881218
432.899	1.923648
433.254	1.894435
433.609	1.881221
433.964	1.854449
434.319	1.888029
434.674	1.876042
435.029	1.851998
435.384	1.884187
435.739	1.830818
436.094	1.840286
436.449	1.854347
436.804	1.835588
437.158	1.863691
437.513	1.835434
437.868	1.842918
438.223	1.823780
438.577	1.813268
438.932	1.800498
439.287	1.804332
439.641	1.796397
439.996	1.805621
440.350	1.799577
440.704	1.779138
441.059	1.781797
441.413	1.774849
441.768	1.757253
442.122	1.778186
442.476	1.746181
442.830	1.725983
443.185	1.751000
443.539	1.743318
443.893	1.720690
444.247	1.700511
444.601	1.706720
444.955	1.704292
445.309	1.720021
445.663	1.706706
446.017	1.688638
446.371	1.693940
446.724	1.684344
447.078	1.670090
447.432	1.696430
447.786	1.683815
448.139	1.665349
448.493	1.677099
448.847	1.665614
449.200	1.639275
449.554	1.634826
449.907	1.640541
450.261	1.641427
450.614	1.623412
450.968	1.621526
451.321	1.614144
451.674	1.603400
452.027	1.585654
452.381	1.579561
452.734	1.577541
453.087	1.567802
453.440	1.564551
453.793	1.567761
454.146	1.558713
454.499	1.550893
454.852	1.551925
455.205	1.545319
455.558	1.521311
455.911	1.526903
456.264	1.541789
456.617	1.527241
456.970	1.531657
457.322	1.513692
457.675	1.502782
458.028	1.495983
458.380	1.492190
458.733	1.497763
459.086	1.495966
459.438	1.500527
459.791	1.487218
460.143	1.475951
460.496	1.470134
460.848	1.462721
461.200	1.465543
461.553	1.457702
461.905	1.439853
462.257	1.440719
462.609	1.437068
462.961	1.434449
463.314	1.431814
463.666	1.427785
464.018	1.427314
464.370	1.418652
464.722	1.425039
465.074	1.405421
465.426	1.415462
465.777	1.402540
466.129	1.400298
466.481	1.401035
466.833	1.393354
467.184	1.389971
467.536	1.399280
467.888	1.384630
468.239	1.389724
468.591	1.372399
468.943	1.370873
469.294	1.362443
469.646	1.358528
469.997	1.348819
470.348	1.356583
470.700	1.350078
471.051	1.338115
471.402	1.349655
471.754	1.342121
472.105	1.337221
472.456	1.320856
472.807	1.331769
473.158	1.324515
473.509	1.317755
473.860	1.318462
474.211	1.319262
474.562	1.314503
474.913	1.320770
475.264	1.310893
475.615	1.300428
475.966	1.301226
476.316	1.303603
476.667	1.290644
477.018	1.292665
477.368	1.297057
477.719	1.291483
478.070	1.293602
478.420	1.287842
478.771	1.275056
479.121	1.278179
479.472	1.276615
479.822	1.272690
480.172	1.270354
480.523	1.270566
480.873	1.261276
481.223	1.264231
481.573	1.262215
481.924	1.260806
482.274	1.256304
482.624	1.251289
482.974	1.253904
483.324	1.250216
483.674	1.246080
484.024	1.245108
484.374	1.247253
484.724	1.237489
485.073	1.222142
485.423	1.207401
485.773	1.194552
486.123	1.195418
486.472	1.207499
486.822	1.222232
487.172	1.221360
487.521	1.216646
487.871	1.214178
488.220	1.213173
488.570	1.205640
488.919	1.205593
489.268	1.201009
489.618	1.200972
489.967	1.195704
490.316	1.189776
490.666	1.188013
491.015	1.181678
491.364	1.177465
491.713	1.172987
492.062	1.175008
492.411	1.169800
492.760	1.169235
493.109	1.172277
493.458	1.165901
493.807	1.157583
494.156	1.154991
494.505	1.158303
494.853	1.147898
495.202	1.148909
495.551	1.148467
495.900	1.141625
496.248	1.144782
496.597	1.141423
496.945	1.134362
497.294	1.132722
497.642	1.129656
497.991	1.124889
498.339	1.124035
498.688	1.123233
499.036	1.115151
499.384	1.113602
499.732	1.114281
500.081	1.106841
500.429	1.103263
500.777	1.100294
501.125	1.100446
501.473	1.099235
501.821	1.096869
502.169	1.088856
502.517	1.093759
502.865	1.082883
503.213	1.083799
503.561	1.085559
503.908	1.079583
504.256	1.072016
504.604	1.071915
504.952	1.068461
505.299	1.063864
505.647	1.064802
505.994	1.063282
506.342	1.058176
506.689	1.055700
507.037	1.047863
507.384	1.050650
507.732	1.046453
508.079	1.042861
508.426	1.040553
508.774	1.040692
509.121	1.034636
509.468	1.028473
509.815	1.030346
510.162	1.030197
510.509	1.025303
510.856	1.025137
511.203	1.020097
511.550	1.016902
511.897	1.012524
512.244	1.018637
512.591	1.004401
512.938	1.004569
513.284	1.006581
513.631	1.003166
513.978	1.000148
514.324	0.998615
514.671	0.992122
515.018	0.994336
515.364	0.989969
515.711	0.991459
516.057	0.984792
516.403	0.983791
516.750	0.976338
517.096	0.978975
517.443	0.975032
517.789	0.972664
518.135	0.973410
518.481	0.972385
518.827	0.967206
519.173	0.963568
519.519	0.958887
519.865	0.954461
520.211	0.958942
520.557	0.952034
520.903	0.948853
521.249	0.946388
521.595	0.948503
521.941	0.942899
522.287	0.941067
522.632	0.937092
522.978	0.938413
523.324	0.935075
523.669	0.928273
524.015	0.927904
524.360	0.928227
524.706	0.923924
525.051	0.922318
525.397	0.921450
525.742	0.917406
526.087	0.913572
526.433	0.913253
526.778	0.912748
527.123	0.911707
527.468	0.903703
527.813	0.908322
528.158	0.904013
528.504	0.902742
528.849	0.900297
529.193	0.898642
529.538	0.890065
529.883	0.889249
530.228	0.889647
530.573	0.884371
530.918	0.878888
531.263	0.877668
531.607	0.876838
531.952	0.873803
532.296	0.871401
532.641	0.870594
532.986	0.871143
533.330	0.866600
533.675	0.866489
534.019	0.861533
534.363	0.863089
534.708	0.859144
535.052	0.857434
535.396	0.851738
535.741	0.850629
536.085	0.843767
536.429	0.843192
536.773	0.841382
537.117	0.837358
537.461	0.837989
537.805	0.834614
538.149	0.831283
538.493	0.828573
538.837	0.826796
539.181	0.822451
539.524	0.821689
539.868	0.815780
540.212	0.812755
540.556	0.810064
540.899	0.807614
541.243	0.804761
541.586	0.804244
541.930	0.802081
542.273	0.799002
542.617	0.793391
542.960	0.791795
543.304	0.789676
543.647	0.786187
543.990	0.784429
544.333	0.782488
544.677	0.775294
545.020	0.776576
545.363	0.770122
545.706	0.766091
546.049	0.763472
546.392	0.762459
546.735	0.758065
547.078	0.758302
547.421	0.754088
547.764	0.751673
548.106	0.748661
548.449	0.744767
548.792	0.738534
549.135	0.736189
549.477	0.732867
549.820	0.729579
550.162	0.723350
550.505	0.723390
550.847	0.717345
551.190	0.713288
551.532	0.710825
551.875	0.710569
552.217	0.706374
552.559	0.704517
552.901	0.699630
553.244	0.696404
553.586	0.692996
553.928	0.689431
554.270	0.684027
554.612	0.681197
554.954	0.678150
555.296	0.674860
555.638	0.671931
555.980	0.668064
556.322	0.664868
556.663	0.662052
557.005	0.658288
557.347	0.651404
557.689	0.650491
558.030	0.644715
558.372	0.641395
558.713	0.637133
559.055	0.637800
559.396	0.632874
559.738	0.630636
560.079	0.623949
560.421	0.623960
560.762	0.621085
561.103	0.616169
561.444	0.614788
561.786	0.610579
562.127	0.605309
562.468	0.603824
562.809	0.598843
563.150	0.597609
563.491	0.592808
563.832	0.590958
564.173	0.585375
564.514	0.582041
564.855	0.578783
565.195	0.573290
565.536	0.571295
565.877	0.567493
566.218	0.568434
566.558	0.563935
566.899	0.560249
567.239	0.558398
567.580	0.556665
567.920	0.552231
568.261	0.550227
568.601	0.545413
568.941	0.542311
569.282	0.535947
569.622	0.527927
569.962	0.517636
570.302	0.506731
570.643	0.497007
570.983	0.490286
571.323	0.482792
571.663	0.477166
572.003	0.468201
572.343	0.461091
572.683	0.452487
573.022	0.438158
573.362	0.423317
573.702	0.410587
574.042	0.404348
574.381	0.398407
574.721	0.397539
575.061	0.393837
575.400	0.392589
575.740	0.386465
576.079	0.374543
576.419	0.346818
576.758	0.325508
577.097	0.310228
577.437	0.303033
577.776	0.297562
578.115	0.303025
578.454	0.308564
578.794	0.322746
579.133	0.331542
579.472	0.322033
579.811	0.292957
580.150	0.262209
580.489	0.232517
580.828	0.213963
581.167	0.201931
581.505	0.197062
581.844	0.216136
582.183	0.244531
582.522	0.285483
582.860	0.321281
583.199	0.342997
583.538	0.339035
583.876	0.332833
584.215	0.320791
584.553	0.310707
584.891	0.306670
585.230	0.309761
585.568	0.318543
585.906	0.323974
586.245	0.328728
586.583	0.333368
586.921	0.333638
587.259	0.334852
587.597	0.339336
587.935	0.348650
588.273	0.361054
588.611	0.373226
588.949	0.384613
589.287	0.394337
589.625	0.399309
589.963	0.402029
590.300	0.403812
590.638	0.403900
590.976	0.403160
591.313	0.398687
591.651	0.391269
591.989	0.380425
592.326	0.371157
592.664	0.361529
593.001	0.355124
593.338	0.352467
593.676	0.353610
594.013	0.357022
594.350	0.361945
594.687	0.364812
595.025	0.366486
595.362	0.370771
595.699	0.375526
596.036	0.378096
596.373	0.381087
596.710	0.381018
597.047	0.379291
597.384	0.377089
597.720	0.372745
598.057	0.370449
598.394	0.366485
598.731	0.360929
599.067	0.355842
599.404	0.353969
599.741	0.352417
600.077	0.353433
600.414	0.354729
600.750	0.355203
601.087	0.356720
601.423	0.355879
601.759	0.355219
602.096	0.352285
602.432	0.351974
602.768	0.351342
603.104	0.350906
603.440	0.352020
603.776	0.354111
604.112	0.355049
604.448	0.357136
604.784	0.356485
605.120	0.357119
