Date	2023年05月19日金曜日 04時50分44秒
Spectrometers	USB2+H05879
ダーク	使用
リファレンス	使用
積分時間[usec]	1800
平均回数	10000
ｽﾑｰｼﾞﾝｸﾞ	0
Electrical Dark	USE
ピクセル数	2048
計測モード	吸光度
保存開始波長[nm]	190.664
保存終了波長[nm]	884.878
保存ﾋﾟｯﾁ波長[nm]	全波長

>>>>>>>>>> Data Start <<<<<<<<<<<<
190.664	0.000000
191.040	0.000000
191.415	0.000000
191.791	0.058072
192.166	1.202685
192.542	0.000000
192.917	-0.343209
193.293	0.000000
193.668	0.343190
194.044	0.000000
194.419	0.171238
194.794	0.014309
195.170	0.000000
195.545	-0.493626
195.920	0.133760
196.296	0.000000
196.671	0.000000
197.046	0.000000
197.421	-0.014070
197.796	0.000000
198.171	0.419893
198.546	0.419849
198.922	0.323825
199.297	-0.079270
199.672	0.000000
200.047	0.535442
200.422	1.660634
200.796	0.000000
201.171	0.505088
201.546	0.376431
201.921	0.000000
202.296	0.000000
202.671	0.315050
203.045	0.419838
203.420	1.313555
203.795	0.681951
204.170	0.860172
204.544	0.727831
204.919	0.533233
205.294	0.427207
205.668	0.000000
206.043	0.000000
206.417	0.963185
206.792	0.191273
207.166	0.402623
207.541	0.000000
207.915	0.639623
208.289	0.714200
208.664	1.113786
209.038	0.000000
209.412	0.539929
209.787	0.444239
210.161	0.220271
210.535	0.000000
210.909	0.640929
211.284	0.996091
211.658	0.000000
212.032	0.549748
212.406	0.679191
212.780	0.526332
213.154	0.000000
213.528	1.313738
213.902	0.406317
214.276	0.000000
214.650	0.605298
215.024	0.000000
215.398	1.175793
215.772	0.454709
216.145	0.749975
216.519	0.000000
216.893	0.000000
217.267	0.000000
217.640	0.418606
218.014	0.000000
218.388	0.000000
218.761	0.000000
219.135	0.697792
219.508	0.000000
219.882	1.729952
220.256	0.000000
220.629	1.291868
221.003	0.731303
221.376	0.083479
221.749	0.525254
222.123	0.389528
222.496	0.399419
222.869	0.000000
223.243	1.328371
223.616	0.481839
223.989	0.367560
224.362	0.000000
224.736	0.236877
225.109	0.000000
225.482	0.000000
225.855	0.747473
226.228	0.000000
226.601	1.054494
226.974	0.985352
227.347	0.527161
227.720	0.000000
228.093	0.711817
228.466	0.883262
228.839	0.397237
229.212	0.000000
229.585	0.362284
229.957	0.466081
230.330	1.070035
230.703	1.009458
231.076	0.000000
231.448	1.267563
231.821	0.124858
232.194	0.410776
232.566	-0.081015
232.939	0.789916
233.311	0.000000
233.684	1.285083
234.056	0.959579
234.429	0.466221
234.801	0.736676
235.174	0.645908
235.546	1.608140
235.918	0.445931
236.291	0.688009
236.663	0.555469
237.035	0.512532
237.408	0.758028
237.780	0.292925
238.152	0.949507
238.524	0.000000
238.896	0.458664
239.268	1.027218
239.641	0.000000
240.013	0.000000
240.385	0.494070
240.757	0.555762
241.129	0.368495
241.500	0.511298
241.872	0.772222
242.244	0.534683
242.616	0.798704
242.988	0.745029
243.360	0.994508
243.731	0.246340
244.103	0.000000
244.475	0.000000
244.847	0.932488
245.218	1.082140
245.590	0.000000
245.961	0.000000
246.333	0.350552
246.705	0.645713
247.076	0.000000
247.448	0.800226
247.819	0.223407
248.190	0.449926
248.562	0.470256
248.933	0.776748
249.305	0.000000
249.676	0.000000
250.047	0.000000
250.418	0.000000
250.790	0.000000
251.161	0.384887
251.532	0.000000
251.903	0.000000
252.274	1.099302
252.645	0.486899
253.016	0.392985
253.387	0.000000
253.758	0.459368
254.129	0.000000
254.500	0.600259
254.871	0.898096
255.242	0.711821
255.613	0.589260
255.984	0.445402
256.355	0.685464
256.725	0.573569
257.096	0.497423
257.467	0.457083
257.838	0.000000
258.208	0.000000
258.579	0.374037
258.949	0.000000
259.320	0.787591
259.690	0.428563
260.061	0.437903
260.431	0.678880
260.802	0.000000
261.172	0.894314
261.543	1.516940
261.913	0.458534
262.283	0.000000
262.654	0.000000
263.024	0.000000
263.394	0.700756
263.764	0.413926
264.135	0.000000
264.505	0.000000
264.875	1.170033
265.245	0.728554
265.615	0.754452
265.985	0.514649
266.355	0.478523
266.725	0.486811
267.095	0.940270
267.465	0.555455
267.835	0.446101
268.205	0.554631
268.575	1.569748
268.944	1.117783
269.314	0.581577
269.684	0.000000
270.054	0.645543
270.423	0.000000
270.793	0.767037
271.163	0.378883
271.532	0.598118
271.902	1.208497
272.271	0.545732
272.641	1.030200
273.010	0.661050
273.380	0.000000
273.749	1.139469
274.119	0.992953
274.488	0.000000
274.857	0.954762
275.227	0.000000
275.596	2.309109
275.965	0.556913
276.335	0.504511
276.704	0.541209
277.073	0.444352
277.442	0.528404
277.811	0.907830
278.180	0.000000
278.549	0.838132
278.918	0.737061
279.287	0.589909
279.656	2.186600
280.025	0.592030
280.394	0.000000
280.763	1.169037
281.132	0.435710
281.501	0.000000
281.869	0.000000
282.238	0.000000
282.607	0.000000
282.976	0.000000
283.344	0.818357
283.713	0.811815
284.081	0.000000
284.450	0.000000
284.819	0.000000
285.187	1.094264
285.556	0.000000
285.924	0.480108
286.292	0.000000
286.661	0.000000
287.029	0.784745
287.398	0.752194
287.766	0.565104
288.134	1.242266
288.502	0.954973
288.871	0.000000
289.239	0.915510
289.607	1.170710
289.975	0.605694
290.343	0.000000
290.711	0.725781
291.079	0.000000
291.447	0.781571
291.815	0.763388
292.183	0.000000
292.551	0.896989
292.919	0.000000
293.287	0.000000
293.655	0.728898
294.022	2.925290
294.390	0.000000
294.758	0.000000
295.126	0.000000
295.493	0.874624
295.861	0.727152
296.229	1.348154
296.596	0.776331
296.964	0.000000
297.331	1.026132
297.699	0.812727
298.066	0.724558
298.434	0.909598
298.801	1.135558
299.168	0.000000
299.536	1.196420
299.903	1.673418
300.270	1.895966
300.638	1.658573
301.005	3.591678
301.372	1.306172
301.739	1.440963
302.106	1.324505
302.473	1.320462
302.840	1.396242
303.207	1.635168
303.574	0.000000
303.941	0.000000
304.308	1.738966
304.675	2.885382
305.042	2.258213
305.409	1.434158
305.776	2.132417
306.143	1.933426
306.509	1.734228
306.876	1.818872
307.243	1.685686
307.610	1.617531
307.976	1.855741
308.343	1.917442
308.709	1.691300
309.076	0.000000
309.442	0.000000
309.809	1.987157
310.175	2.453211
310.542	2.020390
310.908	1.742571
311.275	1.679759
311.641	2.203678
312.007	1.867739
312.373	2.052644
312.740	2.352263
313.106	2.331478
313.472	0.000000
313.838	2.260089
314.204	3.199371
314.570	2.139756
314.936	2.085642
315.302	2.101545
315.668	2.337564
316.034	3.207145
316.400	2.140392
316.766	3.057447
317.132	2.253559
317.498	2.265366
317.864	2.430534
318.230	2.243052
318.595	2.370806
318.961	2.229153
319.327	2.884700
319.692	2.305786
320.058	2.153946
320.424	2.223025
320.789	0.000000
321.155	2.279391
321.520	2.360236
321.886	2.124750
322.251	2.126429
322.616	2.636557
322.982	2.398331
323.347	2.608637
323.712	2.481570
324.078	2.227560
324.443	2.139290
324.808	2.611662
325.173	2.185971
325.539	2.158351
325.904	2.278614
326.269	2.482301
326.634	2.435875
326.999	2.173057
327.364	2.349509
327.729	2.310724
328.094	2.380558
328.459	2.634235
328.823	2.217709
329.188	2.225232
329.553	2.441494
329.918	2.259341
330.283	2.181032
330.647	2.224876
331.012	2.329539
331.377	2.346519
331.741	2.639957
332.106	2.262672
332.470	2.531907
332.835	2.282404
333.199	2.299641
333.564	2.294692
333.928	2.366012
334.293	2.302463
334.657	2.370255
335.021	2.232127
335.386	2.176729
335.750	2.088635
336.114	2.229723
336.478	2.222178
336.843	2.268286
337.207	2.209746
337.571	2.264821
337.935	2.222950
338.299	2.273151
338.663	2.165982
339.027	2.316864
339.391	2.193551
339.755	2.212247
340.119	2.189970
340.483	2.148737
340.846	2.306943
341.210	2.163657
341.574	2.162088
341.938	2.291109
342.301	2.212556
342.665	2.183351
343.029	2.138451
343.392	2.186717
343.756	2.111452
344.119	2.209649
344.483	2.125199
344.846	2.234614
345.210	2.136215
345.573	2.189658
345.937	2.216748
346.300	2.200136
346.663	2.127673
347.027	2.165930
347.390	2.185898
347.753	2.168380
348.116	2.186695
348.479	2.197009
348.843	2.114451
349.206	2.188732
349.569	2.201447
349.932	2.192534
350.295	2.245507
350.658	2.197076
351.021	2.069959
351.383	2.211078
351.746	2.168663
352.109	2.187600
352.472	2.209121
352.835	2.120669
353.197	2.228426
353.560	2.185990
353.923	2.111921
354.285	2.120393
354.648	2.173015
355.011	2.179851
355.373	2.196017
355.736	2.138842
356.098	2.136635
356.461	2.111998
356.823	2.139375
357.185	2.210231
357.548	2.161883
357.910	2.170174
358.272	2.137592
358.635	2.167933
358.997	2.160011
359.359	2.154441
359.721	2.140801
360.083	2.165913
360.445	2.177663
360.807	2.207532
361.169	2.096699
361.531	2.140858
361.893	2.166001
362.255	2.203842
362.617	2.236289
362.979	2.185208
363.341	2.082513
363.703	2.193107
364.064	2.134816
364.426	2.096461
364.788	2.179696
365.149	2.103039
365.511	2.196614
365.873	2.122166
366.234	2.168947
366.596	2.200038
366.957	2.138247
367.319	2.166840
367.680	2.157779
368.042	2.213494
368.403	2.210108
368.764	2.228810
369.126	2.182290
369.487	2.110644
369.848	2.184461
370.209	2.217957
370.570	2.107273
370.931	2.121079
371.293	2.177025
371.654	2.148408
372.015	2.108793
372.376	2.170920
372.737	2.119925
373.098	2.130258
373.458	2.151731
373.819	2.142955
374.180	2.191111
374.541	2.112210
374.902	2.158769
375.263	2.156861
375.623	2.122167
375.984	2.106331
376.345	2.113015
376.705	2.180629
377.066	2.194391
377.426	2.257735
377.787	2.216293
378.147	2.165672
378.508	2.093676
378.868	2.125143
379.228	2.202015
379.589	2.119063
379.949	2.164048
380.309	2.142018
380.670	2.174183
381.030	2.197350
381.390	2.218099
381.750	2.247692
382.110	2.171166
382.470	2.153619
382.830	2.138313
383.190	2.205763
383.550	2.121649
383.910	2.192261
384.270	2.166517
384.630	2.153509
384.990	2.126922
385.350	2.193010
385.709	2.117178
386.069	2.125362
386.429	2.230496
386.788	2.167533
387.148	2.154021
387.508	2.232383
387.867	2.113112
388.227	2.157958
388.586	2.153757
388.946	2.229599
389.305	2.176069
389.665	2.138185
390.024	2.186122
390.383	2.164406
390.743	2.153556
391.102	2.248481
391.461	2.182005
391.820	2.106789
392.179	2.159884
392.539	2.208133
392.898	2.160805
393.257	2.175345
393.616	2.126059
393.975	2.096778
394.334	2.192112
394.693	2.198124
395.051	2.183687
395.410	2.171397
395.769	2.169029
396.128	2.143166
396.487	2.116030
396.845	2.202117
397.204	2.176252
397.563	2.185567
397.921	2.273032
398.280	2.166459
398.638	2.171507
398.997	2.254570
399.355	2.211441
399.714	2.121501
400.072	2.181786
400.431	2.141694
400.789	2.155400
401.147	2.146927
401.506	2.264203
401.864	2.186540
402.222	2.172279
402.580	2.157280
402.938	2.152454
403.297	2.167881
403.655	2.156077
404.013	2.163750
404.371	2.110619
404.729	2.148036
405.087	2.135060
405.444	2.178563
405.802	2.143434
406.160	2.184767
406.518	2.194649
406.876	2.232224
407.233	2.205531
407.591	2.283076
407.949	2.182644
408.306	2.162996
408.664	2.139752
409.022	2.167986
409.379	2.209735
409.737	2.125617
410.094	2.096204
410.451	2.100301
410.809	2.199747
411.166	2.215485
411.523	2.184801
411.881	2.109819
412.238	2.138844
412.595	2.135953
412.952	2.183132
413.310	2.153068
413.667	2.208196
414.024	2.152340
414.381	2.210240
414.738	2.132764
415.095	2.126762
415.452	2.120964
415.809	2.147115
416.165	2.189029
416.522	2.086809
416.879	2.129745
417.236	2.105141
417.593	2.051735
417.949	2.115612
418.306	2.153787
418.663	2.169133
419.019	2.125130
419.376	2.097910
419.732	2.143429
420.089	2.161168
420.445	2.104434
420.802	2.106333
421.158	2.072937
421.514	2.109550
421.871	2.127810
422.227	2.164448
422.583	2.132200
422.939	2.140878
423.295	2.139434
423.652	2.131460
424.008	2.123992
424.364	2.101577
424.720	2.063434
425.076	2.075534
425.432	2.135602
425.788	2.079001
426.143	2.089495
426.499	2.120240
426.855	2.152650
427.211	2.080692
427.567	2.106717
427.922	2.109349
428.278	2.104481
428.634	2.054251
428.989	2.094211
429.345	2.104616
429.700	2.118284
430.056	2.039656
430.411	2.107151
430.767	2.108447
431.122	2.076583
431.478	2.073328
431.833	2.103917
432.188	2.057370
432.543	2.028062
432.899	2.095403
433.254	2.058886
433.609	2.042606
433.964	2.010336
434.319	2.062717
434.674	2.052333
435.029	2.022117
435.384	2.075354
435.739	2.001526
436.094	2.019642
436.449	2.049033
436.804	2.021994
437.158	2.075698
437.513	2.033699
437.868	2.051576
438.223	2.026070
438.577	2.018013
438.932	2.002951
439.287	2.015785
439.641	2.010103
439.996	2.034848
440.350	2.026390
440.704	1.999161
441.059	2.009194
441.413	2.003348
441.768	1.979793
442.122	2.021895
442.476	1.972953
442.830	1.946303
443.185	1.996764
443.539	1.987004
443.893	1.958654
444.247	1.927565
444.601	1.944376
444.955	1.944295
445.309	1.981377
445.663	1.967219
446.017	1.939462
446.371	1.952818
446.724	1.944223
447.078	1.921207
447.432	1.982537
447.786	1.965702
448.139	1.938098
448.493	1.969105
448.847	1.953289
449.200	1.907144
449.554	1.906335
449.907	1.926111
450.261	1.937503
450.614	1.909079
450.968	1.910512
451.321	1.903294
451.674	1.889684
452.027	1.864106
452.381	1.856862
452.734	1.861226
453.087	1.850139
453.440	1.848119
453.793	1.858726
454.146	1.845346
454.499	1.841934
454.852	1.850667
455.205	1.842547
455.558	1.803862
455.911	1.817110
456.264	1.852247
456.617	1.832211
456.970	1.845268
457.322	1.811879
457.675	1.795134
458.028	1.790051
458.380	1.788575
458.733	1.805218
459.086	1.805885
459.438	1.819841
459.791	1.799821
460.143	1.779674
460.496	1.773936
460.848	1.768352
461.200	1.776218
461.553	1.770760
461.905	1.739684
462.257	1.747595
462.609	1.739037
462.961	1.740777
463.314	1.741499
463.666	1.737767
464.018	1.736062
464.370	1.725052
464.722	1.742146
465.074	1.705422
465.426	1.731942
465.777	1.710141
466.129	1.710273
466.481	1.718533
466.833	1.707104
467.184	1.705028
467.536	1.732036
467.888	1.703698
468.239	1.716945
468.591	1.688389
468.943	1.694127
469.294	1.677088
469.646	1.676199
469.997	1.660554
470.348	1.680939
470.700	1.670789
471.051	1.654450
471.402	1.681678
471.754	1.667905
472.105	1.660302
472.456	1.626598
472.807	1.655030
473.158	1.645193
473.509	1.628597
473.860	1.634862
474.211	1.639261
474.562	1.634189
474.913	1.650621
475.264	1.631110
475.615	1.614784
475.966	1.617678
476.316	1.627332
476.667	1.603451
477.018	1.609443
477.368	1.624587
477.719	1.615782
478.070	1.624726
478.420	1.615715
478.771	1.588240
479.121	1.601435
479.472	1.599720
479.822	1.594464
480.172	1.593876
480.523	1.597594
480.873	1.580119
481.223	1.589018
481.573	1.589509
481.924	1.588580
482.274	1.581901
482.624	1.574088
482.974	1.582724
483.324	1.578381
483.674	1.572918
484.024	1.573128
484.374	1.577379
484.724	1.566871
485.073	1.552119
485.423	1.538173
485.773	1.524304
486.123	1.527363
486.472	1.534833
486.822	1.550265
487.172	1.547814
487.521	1.541722
487.871	1.541379
488.220	1.542783
488.570	1.531268
488.919	1.538051
489.268	1.530818
489.618	1.533163
489.967	1.524379
490.316	1.516213
490.666	1.515773
491.015	1.506846
491.364	1.501753
491.713	1.495126
492.062	1.503330
492.411	1.497161
492.760	1.499320
493.109	1.508168
493.458	1.496789
493.807	1.484251
494.156	1.481875
494.505	1.491943
494.853	1.473862
495.202	1.476428
495.551	1.482136
495.900	1.470454
496.248	1.476362
496.597	1.475328
496.945	1.465662
497.294	1.463955
497.642	1.461616
497.991	1.454528
498.339	1.455266
498.688	1.457186
499.036	1.444089
499.384	1.443682
499.732	1.448327
500.081	1.435597
500.429	1.431777
500.777	1.427787
501.125	1.430594
501.473	1.429999
501.821	1.429530
502.169	1.416493
502.517	1.428579
502.865	1.410762
503.213	1.417093
503.561	1.421906
503.908	1.413856
504.256	1.400172
504.604	1.403485
504.952	1.396235
505.299	1.388831
505.647	1.396414
505.994	1.395677
506.342	1.388797
506.689	1.387000
507.037	1.374174
507.384	1.380316
507.732	1.376924
508.079	1.372998
508.426	1.371049
508.774	1.373231
509.121	1.363736
509.468	1.354327
509.815	1.360525
510.162	1.362448
510.509	1.355897
510.856	1.356658
511.203	1.348855
511.550	1.344930
511.897	1.337917
512.244	1.353737
512.591	1.330570
512.938	1.329886
513.284	1.338176
513.631	1.333058
513.978	1.329820
514.324	1.328149
514.671	1.321357
515.018	1.326323
515.364	1.320643
515.711	1.326591
516.057	1.312447
516.403	1.314351
516.750	1.302415
517.096	1.309995
517.443	1.304928
517.789	1.306287
518.135	1.307118
518.481	1.306534
518.827	1.297523
519.173	1.291882
519.519	1.288745
519.865	1.281896
520.211	1.294571
520.557	1.281511
520.903	1.280715
521.249	1.274507
521.595	1.282986
521.941	1.275396
522.287	1.274758
522.632	1.267684
522.978	1.273796
523.324	1.268680
523.669	1.260528
524.015	1.259108
524.360	1.262129
524.706	1.257501
525.051	1.255815
525.397	1.256098
525.742	1.250146
526.087	1.246041
526.433	1.248024
526.778	1.249008
527.123	1.248001
527.468	1.238232
527.813	1.248242
528.158	1.240064
528.504	1.239378
528.849	1.237016
529.193	1.237536
529.538	1.222584
529.883	1.225622
530.228	1.224725
530.573	1.221783
530.918	1.212249
531.263	1.213026
531.607	1.215795
531.952	1.209196
532.296	1.207561
532.641	1.207922
532.986	1.211940
533.330	1.204174
533.675	1.205396
534.019	1.197430
534.363	1.202509
534.708	1.198391
535.052	1.197068
535.396	1.190076
535.741	1.190093
536.085	1.181516
536.429	1.183044
536.773	1.180685
537.117	1.174278
537.461	1.178951
537.805	1.175124
538.149	1.170185
538.493	1.168456
538.837	1.166395
539.181	1.160697
539.524	1.162482
539.868	1.154115
540.212	1.150559
540.556	1.147257
540.899	1.145964
541.243	1.140746
541.586	1.144340
541.930	1.142979
542.273	1.138355
542.617	1.131050
542.960	1.128759
543.304	1.129855
543.647	1.124463
543.990	1.125827
544.333	1.123905
544.677	1.114112
545.020	1.116987
545.363	1.108633
545.706	1.101364
546.049	1.098700
546.392	1.100159
546.735	1.095602
547.078	1.098323
547.421	1.091902
547.764	1.089475
548.106	1.086633
548.449	1.082471
548.792	1.073486
549.135	1.070938
549.477	1.068650
549.820	1.064239
550.162	1.055744
550.505	1.059379
550.847	1.049122
551.190	1.047274
551.532	1.041536
551.875	1.045610
552.217	1.038072
552.559	1.036987
552.901	1.031748
553.244	1.029137
553.586	1.024526
553.928	1.017572
554.270	1.012222
554.612	1.007149
554.954	1.005089
555.296	1.002177
555.638	0.997012
555.980	0.992593
556.322	0.988762
556.663	0.984979
557.005	0.982026
557.347	0.972962
557.689	0.971386
558.030	0.965000
558.372	0.959672
558.713	0.955577
559.055	0.956902
559.396	0.951215
559.738	0.948240
560.079	0.939502
560.421	0.939810
560.762	0.935891
561.103	0.928697
561.444	0.927338
561.786	0.922893
562.127	0.914332
562.468	0.912101
562.809	0.906849
563.150	0.905368
563.491	0.899656
563.832	0.897844
564.173	0.888736
564.514	0.886880
564.855	0.881971
565.195	0.874172
565.536	0.872015
565.877	0.867814
566.218	0.867922
566.558	0.862160
566.899	0.857895
567.239	0.855553
567.580	0.853100
567.920	0.848719
568.261	0.846276
568.601	0.841729
568.941	0.837849
569.282	0.831626
569.622	0.823256
569.962	0.812735
570.302	0.801795
570.643	0.790749
570.983	0.783799
571.323	0.775216
571.663	0.768685
572.003	0.758428
572.343	0.750456
572.683	0.740899
573.022	0.725183
573.362	0.709690
573.702	0.695995
574.042	0.688736
574.381	0.681969
574.721	0.679485
575.061	0.675017
575.400	0.672534
575.740	0.665449
576.079	0.652178
576.419	0.622393
576.758	0.600228
577.097	0.583928
577.437	0.575368
577.776	0.569008
578.115	0.573424
578.454	0.578064
578.794	0.591484
579.133	0.599252
579.472	0.588195
579.811	0.557594
580.150	0.525074
580.489	0.493334
580.828	0.473398
581.167	0.460024
581.505	0.454163
581.844	0.473429
582.183	0.501847
582.522	0.542655
582.860	0.578117
583.199	0.598842
583.538	0.593746
583.876	0.586195
584.215	0.572881
584.553	0.561564
584.891	0.556851
585.230	0.559057
585.568	0.567190
585.906	0.571662
586.245	0.575275
586.583	0.579368
586.921	0.578669
587.259	0.579316
587.597	0.582926
587.935	0.591370
588.273	0.603204
588.611	0.614383
588.949	0.625285
589.287	0.634098
589.625	0.637837
589.963	0.639616
590.300	0.640394
590.638	0.639385
590.976	0.638281
591.313	0.632568
591.651	0.624287
591.989	0.612356
592.326	0.602548
592.664	0.591842
593.001	0.584884
593.338	0.581545
593.676	0.581606
594.013	0.584465
594.350	0.588711
594.687	0.590743
595.025	0.591612
595.362	0.595773
595.699	0.599494
596.036	0.601108
596.373	0.603358
596.710	0.602425
597.047	0.599858
597.384	0.596704
597.720	0.591596
598.057	0.588819
598.394	0.584228
598.731	0.577520
599.067	0.571855
599.404	0.569118
599.741	0.566680
600.077	0.567035
600.414	0.567736
600.750	0.567429
601.087	0.568486
601.423	0.567150
601.759	0.565274
602.096	0.561508
602.432	0.560771
602.768	0.559027
603.104	0.558136
603.440	0.558876
603.776	0.560375
604.112	0.560510
604.448	0.561945
604.784	0.560387
605.120	0.560720
