Date	2023年01月06日金曜日 12時05分04秒
Spectrometers	USB2+H05879
ダーク	使用
リファレンス	使用
積分時間[msec]	2
平均回数	10000
ｽﾑｰｼﾞﾝｸﾞ	4
Electrical Dark	USE
ピクセル数	2048
計測モード	吸光度
保存開始波長[nm]	190.664
保存終了波長[nm]	884.878
保存ﾋﾟｯﾁ波長[nm]	全波長

>>>>>>>>>> Data Start <<<<<<<<<<<<
190.664	0.000000
191.040	0.496925
191.415	0.496925
191.791	0.000000
192.166	0.000000
192.542	0.000000
192.917	0.000000
193.293	0.000000
193.668	0.000000
194.044	0.000000
194.419	0.000000
194.794	0.000000
195.170	0.000000
195.545	0.000000
195.920	0.000000
196.296	0.000000
196.671	1.648763
197.046	0.440847
197.421	0.594474
197.796	0.238594
198.171	0.137640
198.546	0.133343
198.922	0.105390
199.297	0.216567
199.672	0.543271
200.047	0.595339
200.422	0.641629
200.796	0.783613
201.171	0.000000
201.546	0.000000
201.921	0.000000
202.296	0.000000
202.671	0.000000
203.045	0.000000
203.420	0.000000
203.795	0.000000
204.170	0.000000
204.544	0.000000
204.919	0.000000
205.294	-0.278277
205.668	0.088316
206.043	0.181144
206.417	1.033431
206.792	0.000000
207.166	0.000000
207.541	0.000000
207.915	0.000000
208.289	1.090635
208.664	0.000000
209.038	0.000000
209.412	0.000000
209.787	0.000000
210.161	1.445968
210.535	0.000000
210.909	0.608207
211.284	0.308974
211.658	0.009718
212.032	0.082420
212.406	0.095236
212.780	0.109551
213.154	0.136600
213.528	0.150082
213.902	0.212557
214.276	0.240395
214.650	0.336752
215.024	0.309542
215.398	0.329784
215.772	0.363271
216.145	0.368785
216.519	0.304765
216.893	0.326884
217.267	0.296483
217.640	0.307302
218.014	0.232318
218.388	0.451235
218.761	0.393019
219.135	0.378996
219.508	0.437988
219.882	0.519352
220.256	0.478856
220.629	0.453217
221.003	0.314689
221.376	0.267120
221.749	0.262842
222.123	0.358985
222.496	0.461343
222.869	0.000000
223.243	2.031911
223.616	0.630452
223.989	0.379647
224.362	0.311878
224.736	0.499416
225.109	0.466404
225.482	0.570394
225.855	0.257454
226.228	0.106884
226.601	0.197615
226.974	0.596322
227.347	0.980566
227.720	0.000000
228.093	0.000000
228.466	0.000000
228.839	0.000000
229.212	0.000000
229.585	0.862061
229.957	0.611766
230.330	0.420080
230.703	0.419975
231.076	0.527409
231.448	0.603463
231.821	0.364205
232.194	0.365344
232.566	0.444046
232.939	0.475624
233.311	0.374405
233.684	0.330535
234.056	0.305435
234.429	0.299117
234.801	0.318336
235.174	0.360962
235.546	0.334335
235.918	0.393414
236.291	0.553337
236.663	0.670254
237.035	1.225895
237.408	0.000000
237.780	0.000000
238.152	1.428317
238.524	1.467533
238.896	0.000000
239.268	0.721336
239.641	0.505468
240.013	1.027894
240.385	0.351229
240.757	0.227822
241.129	0.339424
241.500	0.309601
241.872	0.237836
242.244	0.358945
242.616	0.467949
242.988	0.451077
243.360	0.740202
243.731	1.240255
244.103	0.840075
244.475	1.149999
244.847	0.000000
245.218	0.000000
245.590	0.000000
245.961	0.000000
246.333	0.000000
246.705	0.000000
247.076	0.000000
247.448	0.000000
247.819	0.000000
248.190	0.000000
248.562	0.000000
248.933	0.624252
249.305	0.442071
249.676	0.205716
250.047	0.331546
250.418	0.256554
250.790	0.183562
251.161	0.225116
251.532	0.347762
251.903	0.463391
252.274	0.765065
252.645	1.541535
253.016	1.381347
253.387	2.057934
253.758	0.998820
254.129	0.729030
254.500	0.652203
254.871	0.421338
255.242	0.286571
255.613	0.345197
255.984	0.294241
256.355	0.335560
256.725	0.383131
257.096	0.436455
257.467	0.528360
257.838	0.538624
258.208	0.465760
258.579	0.586276
258.949	0.386197
259.320	0.350633
259.690	0.344353
260.061	0.305076
260.431	0.299661
260.802	0.249649
261.172	0.310076
261.543	0.372101
261.913	0.345630
262.283	0.414296
262.654	0.000000
263.024	0.000000
263.394	0.000000
263.764	0.000000
264.135	0.000000
264.505	0.433786
264.875	0.424169
265.245	0.392861
265.615	0.380062
265.985	0.199793
266.355	0.233768
266.725	0.257837
267.095	0.268596
267.465	0.271917
267.835	0.262600
268.205	0.251109
268.575	0.313140
268.944	0.426351
269.314	0.614634
269.684	0.588577
270.054	0.588458
270.423	0.541057
270.793	0.536110
271.163	0.907068
271.532	0.000000
271.902	0.000000
272.271	1.799951
272.641	1.430922
273.010	0.990901
273.380	0.908199
273.749	1.253152
274.119	0.696523
274.488	0.479446
274.857	0.423138
275.227	0.392265
275.596	0.368164
275.965	0.321661
276.335	0.318653
276.704	0.314624
277.073	0.296041
277.442	0.340794
277.811	0.395020
278.180	0.407825
278.549	0.381556
278.918	0.365300
279.287	0.473299
279.656	0.641665
280.025	0.907664
280.394	0.827475
280.763	1.026429
281.132	0.838388
281.501	1.589775
281.869	0.783069
282.238	1.165609
282.607	0.667506
282.976	0.670190
283.344	0.524838
283.713	0.666827
284.081	0.706109
284.450	0.697486
284.819	0.566667
285.187	1.626314
285.556	0.000000
285.924	0.000000
286.292	0.542072
286.661	0.507480
287.029	0.800448
287.398	0.597156
287.766	0.569233
288.134	0.538573
288.502	0.418452
288.871	0.404509
289.239	0.446490
289.607	0.461054
289.975	0.548735
290.343	0.423139
290.711	0.468874
291.079	0.722816
291.447	0.654636
291.815	0.692842
292.183	0.924961
292.551	0.722803
292.919	0.771405
293.287	0.735524
293.655	0.833826
294.022	0.708072
294.390	0.682968
294.758	1.182390
295.126	1.240902
295.493	1.057140
295.861	1.430838
296.229	1.243382
296.596	0.966452
296.964	0.630450
297.331	1.292481
297.699	1.147633
298.066	0.635835
298.434	0.598166
298.801	0.487242
299.168	0.489518
299.536	0.540687
299.903	0.578089
300.270	0.717348
300.638	0.543009
301.005	0.518182
301.372	0.540202
301.739	0.517888
302.106	0.519710
302.473	0.466844
302.840	0.449935
303.207	0.441927
303.574	0.380884
303.941	0.427156
304.308	0.444779
304.675	0.461768
305.042	0.461978
305.409	0.496368
305.776	0.617577
306.143	0.674009
306.509	0.769116
306.876	0.920394
307.243	0.854624
307.610	0.885630
307.976	0.952449
308.343	1.053356
308.709	1.549707
309.076	1.138209
309.442	1.298439
309.809	1.131261
310.175	1.438249
310.542	1.646433
310.908	1.522399
311.275	1.373691
311.641	1.410197
312.007	1.491461
312.373	1.771420
312.740	1.654454
313.106	1.914560
313.472	1.659161
313.838	1.629423
314.204	1.714317
314.570	1.867544
314.936	1.799025
315.302	1.866398
315.668	1.892634
316.034	1.837336
316.400	2.020419
316.766	2.436055
317.132	2.354072
317.498	2.565757
317.864	2.595387
318.230	2.307975
318.595	2.076457
318.961	1.929321
319.327	1.991338
319.692	1.984288
320.058	1.793287
320.424	1.935252
320.789	1.855217
321.155	1.849812
321.520	2.064984
321.886	2.058950
322.251	2.220529
322.616	2.257863
322.982	2.282255
323.347	2.675552
323.712	2.530027
324.078	2.354190
324.443	2.268348
324.808	2.112807
325.173	2.069885
325.539	2.119307
325.904	2.076584
326.269	1.981928
326.634	1.961636
326.999	2.032681
327.364	2.085834
327.729	2.105679
328.094	2.201029
328.459	2.225537
328.823	2.121057
329.188	2.146406
329.553	2.184715
329.918	2.160664
330.283	2.166923
330.647	2.183793
331.012	2.312143
331.377	2.233887
331.741	2.262192
332.106	2.308700
332.470	2.492156
332.835	2.630287
333.199	2.660404
333.564	2.429399
333.928	2.420135
334.293	2.306133
334.657	2.319931
335.021	2.347862
335.386	2.434375
335.750	2.326189
336.114	2.208352
336.478	2.204833
336.843	2.265878
337.207	2.292778
337.571	2.281257
337.935	2.312061
338.299	2.351457
338.663	2.261223
339.027	2.249461
339.391	2.314701
339.755	2.358994
340.119	2.351125
340.483	2.410114
340.846	2.422371
341.210	2.407769
341.574	2.294258
341.938	2.353639
342.301	2.399333
342.665	2.381820
343.029	2.382721
343.392	2.384803
343.756	2.312649
344.119	2.351702
344.483	2.321082
344.846	2.374109
345.210	2.366839
345.573	2.322770
345.937	2.360089
346.300	2.358552
346.663	2.279635
347.027	2.332568
347.390	2.310286
347.753	2.328627
348.116	2.300619
348.479	2.287931
348.843	2.298189
349.206	2.293769
349.569	2.338521
349.932	2.339928
350.295	2.295522
350.658	2.306231
351.021	2.320839
351.383	2.296305
351.746	2.291050
352.109	2.256992
352.472	2.313975
352.835	2.273605
353.197	2.348420
353.560	2.331927
353.923	2.323019
354.285	2.313187
354.648	2.388725
355.011	2.444678
355.373	2.463041
355.736	2.376084
356.098	2.391977
356.461	2.314311
356.823	2.370292
357.185	2.360835
357.548	2.366506
357.910	2.346108
358.272	2.296785
358.635	2.363804
358.997	2.361868
359.359	2.321960
359.721	2.416490
360.083	2.412959
360.445	2.391454
360.807	2.376937
361.169	2.333345
361.531	2.332605
361.893	2.303513
362.255	2.282421
362.617	2.284460
362.979	2.234233
363.341	2.247289
363.703	2.270871
364.064	2.277553
364.426	2.346141
364.788	2.386859
365.149	2.361130
365.511	2.375774
365.873	2.368141
366.234	2.382624
366.596	2.388276
366.957	2.418289
367.319	2.395856
367.680	2.361690
368.042	2.347032
368.403	2.393740
368.764	2.374257
369.126	2.360523
369.487	2.336102
369.848	2.312668
370.209	2.309378
370.570	2.305595
370.931	2.344446
371.293	2.326715
371.654	2.347707
372.015	2.430449
372.376	2.459964
372.737	2.513862
373.098	2.522350
373.458	2.527941
373.819	2.610394
374.180	2.529082
374.541	2.487366
374.902	2.413330
375.263	2.378499
375.623	2.396423
375.984	2.372551
376.345	2.389219
376.705	2.405729
377.066	2.409219
377.426	2.456787
377.787	2.522389
378.147	2.534090
378.508	2.599995
378.868	2.644500
379.228	2.649951
379.589	2.551871
379.949	2.466810
380.309	2.410035
380.670	2.375706
381.030	2.388905
381.390	2.407457
381.750	2.358225
382.110	2.337396
382.470	2.364791
382.830	2.391005
383.190	2.380673
383.550	2.357669
383.910	2.375891
384.270	2.368967
384.630	2.350787
384.990	2.351792
385.350	2.387749
385.709	2.401857
386.069	2.409277
386.429	2.458280
386.788	2.559061
387.148	2.635570
387.508	2.656691
387.867	2.715609
388.227	2.738464
388.586	2.739718
388.946	2.614625
389.305	2.609648
389.665	2.634399
390.024	2.530358
390.383	2.492428
390.743	2.456364
391.102	2.471905
391.461	2.507745
391.820	2.463066
392.179	2.488038
392.539	2.495816
392.898	2.450327
393.257	2.446862
393.616	2.432095
393.975	2.471512
394.334	2.426452
394.693	2.373521
395.051	2.391497
395.410	2.337771
395.769	2.367260
396.128	2.345498
396.487	2.351288
396.845	2.321961
397.204	2.307448
397.563	2.306921
397.921	2.351973
398.280	2.335871
398.638	2.400744
398.997	2.350160
399.355	2.437777
399.714	2.513391
400.072	2.517030
400.431	2.500798
400.789	2.503989
401.147	2.410699
401.506	2.416376
401.864	2.408698
402.222	2.421980
402.580	2.368144
402.938	2.322765
403.297	2.348728
403.655	2.355451
404.013	2.363917
404.371	2.423658
404.729	2.408210
405.087	2.391524
405.444	2.359575
405.802	2.334293
406.160	2.321185
406.518	2.304567
406.876	2.334383
407.233	2.314975
407.591	2.311606
407.949	2.292114
408.306	2.292421
408.664	2.361050
409.022	2.392878
409.379	2.436145
409.737	2.423381
410.094	2.371396
410.451	2.378382
410.809	2.379231
411.166	2.453332
411.523	2.502612
411.881	2.448559
412.238	2.376789
412.595	2.374901
412.952	2.410209
413.310	2.406004
413.667	2.435073
414.024	2.414376
414.381	2.369272
414.738	2.317991
415.095	2.309768
415.452	2.355747
415.809	2.322929
416.165	2.272297
416.522	2.267499
416.879	2.251183
417.236	2.242843
417.593	2.260175
417.949	2.260806
418.306	2.232198
418.663	2.235373
419.019	2.254160
419.376	2.255036
419.732	2.255814
420.089	2.217847
420.445	2.204321
420.802	2.202281
421.158	2.207292
421.514	2.225716
421.871	2.208167
422.227	2.202141
422.583	2.233865
422.939	2.231474
423.295	2.238523
423.652	2.229686
424.008	2.188823
424.364	2.211798
424.720	2.196396
425.076	2.187015
425.432	2.166426
425.788	2.132317
426.143	2.128054
426.499	2.128890
426.855	2.146944
427.211	2.165342
427.567	2.121675
427.922	2.139300
428.278	2.133423
428.634	2.141863
428.989	2.129350
429.345	2.136097
429.700	2.124590
430.056	2.121689
430.411	2.124080
430.767	2.112788
431.122	2.084289
431.478	2.113667
431.833	2.117956
432.188	2.123068
432.543	2.097056
432.899	2.124731
433.254	2.122072
433.609	2.113978
433.964	2.115362
434.319	2.131043
434.674	2.110790
435.029	2.092137
435.384	2.101311
435.739	2.097872
436.094	2.064649
436.449	2.048995
436.804	2.017879
437.158	2.032970
437.513	2.022063
437.868	2.004029
438.223	2.012951
438.577	2.009642
438.932	2.004730
439.287	2.015928
439.641	2.011376
439.996	2.034386
440.350	2.035853
440.704	2.043023
441.059	2.030646
441.413	2.002682
441.768	1.983284
442.122	1.996570
442.476	1.985856
442.830	1.975970
443.185	1.965420
443.539	1.953924
443.893	1.927863
444.247	1.928921
444.601	1.920294
444.955	1.907950
445.309	1.879315
445.663	1.871924
446.017	1.865360
446.371	1.857018
446.724	1.847183
447.078	1.848869
447.432	1.845090
447.786	1.837622
448.139	1.847998
448.493	1.857322
448.847	1.846209
449.200	1.827819
449.554	1.821545
449.907	1.809545
450.261	1.802812
450.614	1.784818
450.968	1.797440
451.321	1.778686
451.674	1.756521
452.027	1.745289
452.381	1.760698
452.734	1.749564
453.087	1.752540
453.440	1.758904
453.793	1.767699
454.146	1.760550
454.499	1.760510
454.852	1.777569
455.205	1.777594
455.558	1.764997
455.911	1.761439
456.264	1.753409
456.617	1.743745
456.970	1.734981
457.322	1.723045
457.675	1.722810
458.028	1.709855
458.380	1.704523
458.733	1.691789
459.086	1.694071
459.438	1.694578
459.791	1.680195
460.143	1.669305
460.496	1.663785
460.848	1.657365
461.200	1.645198
461.553	1.649397
461.905	1.653888
462.257	1.635680
462.609	1.621259
462.961	1.614971
463.314	1.615553
463.666	1.610268
464.018	1.613388
464.370	1.611042
464.722	1.598870
465.074	1.593540
465.426	1.599671
465.777	1.596838
466.129	1.595156
466.481	1.591735
466.833	1.582861
467.184	1.563460
467.536	1.564491
467.888	1.561859
468.239	1.551593
468.591	1.538105
468.943	1.537976
469.294	1.538500
469.646	1.533309
469.997	1.526992
470.348	1.530012
470.700	1.521800
471.051	1.516493
471.402	1.513680
471.754	1.516320
472.105	1.515908
472.456	1.505433
472.807	1.498993
473.158	1.499150
473.509	1.492628
473.860	1.486230
474.211	1.483691
474.562	1.481839
474.913	1.474328
475.264	1.467712
475.615	1.462263
475.966	1.459963
476.316	1.455528
476.667	1.457236
477.018	1.452930
477.368	1.450673
477.719	1.451278
478.070	1.448161
478.420	1.439169
478.771	1.436687
479.121	1.437314
479.472	1.434264
479.822	1.424689
480.172	1.425466
480.523	1.424107
480.873	1.420577
481.223	1.416524
481.573	1.417666
481.924	1.416684
482.274	1.408022
482.624	1.406624
482.974	1.405994
483.324	1.399999
483.674	1.395136
484.024	1.390511
484.374	1.386915
484.724	1.382637
485.073	1.379967
485.423	1.378868
485.773	1.377545
486.123	1.375841
486.472	1.373241
486.822	1.369608
487.172	1.366474
487.521	1.364340
487.871	1.361150
488.220	1.356807
488.570	1.353064
488.919	1.348615
489.268	1.345522
489.618	1.344165
489.967	1.340477
490.316	1.338075
490.666	1.332178
491.015	1.328234
491.364	1.327380
491.713	1.325172
492.062	1.320374
492.411	1.316493
492.760	1.311888
493.109	1.311333
493.458	1.308484
493.807	1.305922
494.156	1.302850
494.505	1.298758
494.853	1.294551
495.202	1.291733
495.551	1.288321
495.900	1.286272
496.248	1.281721
496.597	1.276765
496.945	1.273425
497.294	1.270737
497.642	1.267191
497.991	1.263802
498.339	1.262970
498.688	1.257002
499.036	1.253066
499.384	1.247087
499.732	1.245145
500.081	1.244927
500.429	1.244513
500.777	1.241817
501.125	1.237787
501.473	1.232219
501.821	1.231569
502.169	1.228042
502.517	1.228305
502.865	1.224664
503.213	1.219812
503.561	1.215164
503.908	1.210856
504.256	1.208955
504.604	1.207117
504.952	1.202322
505.299	1.200267
505.647	1.197417
505.994	1.195698
506.342	1.194038
506.689	1.189869
507.037	1.187733
507.384	1.183161
507.732	1.181070
508.079	1.179260
508.426	1.174813
508.774	1.171809
509.121	1.167319
509.468	1.164190
509.815	1.162711
510.162	1.160656
510.509	1.160541
510.856	1.155468
511.203	1.151280
511.550	1.151026
511.897	1.147422
512.244	1.145619
512.591	1.143368
512.938	1.141035
513.284	1.138213
513.631	1.132310
513.978	1.129786
514.324	1.127767
514.671	1.124337
515.018	1.122392
515.364	1.120958
515.711	1.118693
516.057	1.114675
516.403	1.111633
516.750	1.110489
517.096	1.107825
517.443	1.106790
517.789	1.103456
518.135	1.100721
518.481	1.096680
518.827	1.091023
519.173	1.088440
519.519	1.086220
519.865	1.083022
520.211	1.081079
520.557	1.078100
520.903	1.075801
521.249	1.070547
521.595	1.070132
521.941	1.068525
522.287	1.068085
522.632	1.067130
522.978	1.063975
523.324	1.062322
523.669	1.058055
524.015	1.056537
524.360	1.057543
524.706	1.053460
525.051	1.052358
525.397	1.048248
525.742	1.044687
526.087	1.044827
526.433	1.041223
526.778	1.041210
527.123	1.037462
527.468	1.033286
527.813	1.028808
528.158	1.026879
528.504	1.023762
528.849	1.021976
529.193	1.017935
529.538	1.015617
529.883	1.011007
530.228	1.008919
530.573	1.004944
530.918	1.002453
531.263	1.000084
531.607	0.997376
531.952	0.992134
532.296	0.989809
532.641	0.986379
532.986	0.984431
533.330	0.982205
533.675	0.981095
534.019	0.978003
534.363	0.974617
534.708	0.972663
535.052	0.970431
535.396	0.966085
535.741	0.963221
536.085	0.959757
536.429	0.955381
536.773	0.952445
537.117	0.950818
537.461	0.947483
537.805	0.944373
538.149	0.942439
538.493	0.940182
538.837	0.936369
539.181	0.933219
539.524	0.931031
539.868	0.927501
540.212	0.922889
540.556	0.918477
540.899	0.915203
541.243	0.910422
541.586	0.907359
541.930	0.904784
542.273	0.902018
542.617	0.897689
542.960	0.893707
543.304	0.890705
543.647	0.887600
543.990	0.884813
544.333	0.881252
544.677	0.876786
545.020	0.873027
545.363	0.869034
545.706	0.865478
546.049	0.861510
546.392	0.858125
546.735	0.855333
547.078	0.850214
547.421	0.847135
547.764	0.844509
548.106	0.840892
548.449	0.836250
548.792	0.833171
549.135	0.829259
549.477	0.825285
549.820	0.821056
550.162	0.816671
550.505	0.811984
550.847	0.807389
551.190	0.801371
551.532	0.797286
551.875	0.791304
552.217	0.786941
552.559	0.780018
552.901	0.774541
553.244	0.769212
553.586	0.764597
553.928	0.760227
554.270	0.756538
554.612	0.753046
554.954	0.749659
555.296	0.745669
555.638	0.742866
555.980	0.738858
556.322	0.736116
556.663	0.732277
557.005	0.728042
557.347	0.723843
557.689	0.718102
558.030	0.713286
558.372	0.707825
558.713	0.704086
559.055	0.700037
559.396	0.695361
559.738	0.690567
560.079	0.686153
560.421	0.681432
560.762	0.677571
561.103	0.674143
561.444	0.671730
561.786	0.666750
562.127	0.661284
562.468	0.656782
562.809	0.652573
563.150	0.647514
563.491	0.643164
563.832	0.637974
564.173	0.632949
564.514	0.627085
564.855	0.622864
565.195	0.618169
565.536	0.614127
565.877	0.609395
566.218	0.605897
566.558	0.602250
566.899	0.598795
567.239	0.594755
567.580	0.590435
567.920	0.586255
568.261	0.583588
568.601	0.579424
568.941	0.576181
569.282	0.572101
569.622	0.568696
569.962	0.565030
570.302	0.561246
570.643	0.557996
570.983	0.554184
571.323	0.549823
571.663	0.545923
572.003	0.541488
572.343	0.537025
572.683	0.532898
573.022	0.528799
573.362	0.524686
573.702	0.517044
574.042	0.506381
574.381	0.496044
574.721	0.485808
575.061	0.474784
575.400	0.463223
575.740	0.451135
576.079	0.439292
576.419	0.427239
576.758	0.416575
577.097	0.407100
577.437	0.400157
577.776	0.395910
578.115	0.392818
578.454	0.388575
578.794	0.382072
579.133	0.372912
579.472	0.362290
579.811	0.349787
580.150	0.336591
580.489	0.325346
580.828	0.317077
581.167	0.314260
581.505	0.317351
581.844	0.325328
582.183	0.336542
582.522	0.349261
582.860	0.362280
583.199	0.375158
583.538	0.384970
583.876	0.391460
584.215	0.394154
584.553	0.394177
584.891	0.393374
585.230	0.393283
585.568	0.394240
585.906	0.397313
586.245	0.402431
586.583	0.409744
586.921	0.419169
587.259	0.426154
587.597	0.425304
587.935	0.424529
588.273	0.424096
588.611	0.423703
588.949	0.422691
589.287	0.422020
589.625	0.420717
589.963	0.419105
590.300	0.416789
590.638	0.414400
590.976	0.411992
591.313	0.409590
591.651	0.407938
591.989	0.406119
592.326	0.404345
592.664	0.403631
593.001	0.402807
593.338	0.402298
593.676	0.401784
594.013	0.401000
594.350	0.400549
594.687	0.399569
595.025	0.398637
595.362	0.397685
595.699	0.396511
596.036	0.394917
596.373	0.392874
596.710	0.390537
597.047	0.388934
597.384	0.386752
597.720	0.385075
598.057	0.383392
598.394	0.382169
598.731	0.380414
599.067	0.379279
599.404	0.378446
599.741	0.377818
600.077	0.376681
600.414	0.375848
600.750	0.375120
601.087	0.374339
601.423	0.373577
601.759	0.372798
602.096	0.371756
602.432	0.370724
602.768	0.370458
603.104	0.369728
603.440	0.369137
603.776	0.367555
604.112	0.367057
604.448	0.365641
604.784	0.364326
605.120	0.363154
605.456	0.362152
